Time (s),Normal Strain,Shear Strain
0.0,0.0,0.0
0.010005,1.3e-05,2.3e-05
0.02001,2.6e-05,4.7e-05
0.030015,4e-05,7e-05
0.04002,5.3e-05,9.3e-05
0.050025,6.6e-05,0.000116
0.06003,7.9e-05,0.00014
0.070035,9.2e-05,0.000163
0.08004,0.000106,0.000186
0.090045,0.000119,0.000209
0.10005,0.000132,0.000232
0.110055,0.000145,0.000256
0.12006,0.000158,0.000279
0.130065,0.000171,0.000302
0.14007,0.000185,0.000325
0.150075,0.000198,0.000348
0.16008,0.000211,0.000372
0.170085,0.000224,0.000395
0.18009,0.000237,0.000418
0.190095,0.00025,0.000441
0.2001,0.000263,0.000464
0.210105,0.000276,0.000487
0.22011,0.00029,0.00051
0.230115,0.000303,0.000533
0.24012,0.000316,0.000556
0.250125,0.000329,0.000579
0.26013,0.000342,0.000602
0.270135,0.000355,0.000625
0.28014,0.000368,0.000648
0.290145,0.000381,0.000671
0.30015,0.000394,0.000694
0.310155,0.000407,0.000716
0.32016,0.00042,0.000739
0.330165,0.000433,0.000762
0.34017,0.000445,0.000785
0.350175,0.000458,0.000808
0.36018,0.000471,0.00083
0.370185,0.000484,0.000853
0.38019,0.000497,0.000875
0.390195,0.00051,0.000898
0.4002,0.000523,0.000921
0.410205,0.000535,0.000943
0.42021,0.000548,0.000966
0.430215,0.000561,0.000988
0.44022,0.000573,0.00101
0.450225,0.000586,0.001033
0.46023,0.000599,0.001055
0.470235,0.000611,0.001077
0.48024,0.000624,0.0011
0.490245,0.000637,0.001122
0.50025,0.000649,0.001144
0.510255,0.000662,0.001166
0.52026,0.000674,0.001188
0.530265,0.000687,0.00121
0.54027,0.000699,0.001232
0.550275,0.000712,0.001254
0.56028,0.000724,0.001276
0.570285,0.000736,0.001298
0.58029,0.000749,0.001319
0.590295,0.000761,0.001341
0.6003,0.000773,0.001363
0.610305,0.000786,0.001384
0.62031,0.000798,0.001406
0.630315,0.00081,0.001427
0.64032,0.000822,0.001449
0.650325,0.000834,0.00147
0.66033,0.000847,0.001491
0.670335,0.000859,0.001513
0.68034,0.000871,0.001534
0.690345,0.000883,0.001555
0.70035,0.000895,0.001576
0.710355,0.000906,0.001597
0.72036,0.000918,0.001618
0.730365,0.00093,0.001639
0.74037,0.000942,0.00166
0.750375,0.000954,0.001681
0.76038,0.000966,0.001701
0.770385,0.000977,0.001722
0.78039,0.000989,0.001742
0.790395,0.001001,0.001763
0.8004,0.001012,0.001783
0.810405,0.001024,0.001804
0.82041,0.001035,0.001824
0.830415,0.001047,0.001844
0.84042,0.001058,0.001864
0.850425,0.001069,0.001884
0.86043,0.001081,0.001904
0.870435,0.001092,0.001924
0.88044,0.001103,0.001944
0.890445,0.001115,0.001964
0.90045,0.001126,0.001983
0.910455,0.001137,0.002003
0.92046,0.001148,0.002023
0.930465,0.001159,0.002042
0.94047,0.00117,0.002061
0.950475,0.001181,0.002081
0.96048,0.001192,0.0021
0.970485,0.001203,0.002119
0.98049,0.001213,0.002138
0.990495,0.001224,0.002157
1.0005,0.001235,0.002176
1.010505,0.001246,0.002195
1.02051,0.001256,0.002213
1.030515,0.001267,0.002232
1.04052,0.001277,0.00225
1.050525,0.001288,0.002269
1.06053,0.001298,0.002287
1.070535,0.001308,0.002305
1.08054,0.001319,0.002323
1.090545,0.001329,0.002341
1.10055,0.001339,0.002359
1.110555,0.001349,0.002377
1.12056,0.001359,0.002395
1.130565,0.001369,0.002413
1.14057,0.001379,0.00243
1.150575,0.001389,0.002448
1.16058,0.001399,0.002465
1.170585,0.001409,0.002483
1.18059,0.001419,0.0025
1.190595,0.001428,0.002517
1.2006,0.001438,0.002534
1.210605,0.001448,0.002551
1.22061,0.001457,0.002568
1.230615,0.001467,0.002584
1.24062,0.001476,0.002601
1.250625,0.001486,0.002617
1.26063,0.001495,0.002634
1.270635,0.001504,0.00265
1.28064,0.001513,0.002666
1.290645,0.001522,0.002682
1.30065,0.001531,0.002698
1.310655,0.00154,0.002714
1.32066,0.001549,0.00273
1.330665,0.001558,0.002745
1.34067,0.001567,0.002761
1.350675,0.001576,0.002776
1.36068,0.001585,0.002792
1.370685,0.001593,0.002807
1.38069,0.001602,0.002822
1.390695,0.00161,0.002837
1.4007,0.001619,0.002852
1.410705,0.001627,0.002867
1.42071,0.001635,0.002881
1.430715,0.001644,0.002896
1.44072,0.001652,0.00291
1.450725,0.00166,0.002925
1.46073,0.001668,0.002939
1.470735,0.001676,0.002953
1.48074,0.001684,0.002967
1.490745,0.001692,0.002981
1.50075,0.0017,0.002994
1.510755,0.001707,0.003008
1.52076,0.001715,0.003021
1.530765,0.001722,0.003035
1.54077,0.00173,0.003048
1.550775,0.001737,0.003061
1.56078,0.001745,0.003074
1.570785,0.001752,0.003087
1.58079,0.001759,0.0031
1.590795,0.001767,0.003112
1.6008,0.001774,0.003125
1.610805,0.001781,0.003137
1.62081,0.001788,0.00315
1.630815,0.001795,0.003162
1.64082,0.001801,0.003174
1.650825,0.001808,0.003186
1.66083,0.001815,0.003197
1.670835,0.001821,0.003209
1.68084,0.001828,0.003221
1.690845,0.001834,0.003232
1.70085,0.001841,0.003243
1.710855,0.001847,0.003254
1.72086,0.001853,0.003265
1.730865,0.00186,0.003276
1.74087,0.001866,0.003287
1.750875,0.001872,0.003298
1.76088,0.001878,0.003308
1.770885,0.001883,0.003318
1.78089,0.001889,0.003329
1.790895,0.001895,0.003339
1.8009,0.001901,0.003349
1.810905,0.001906,0.003359
1.82091,0.001912,0.003368
1.830915,0.001917,0.003378
1.84092,0.001922,0.003387
1.850925,0.001928,0.003397
1.86093,0.001933,0.003406
1.870935,0.001938,0.003415
1.88094,0.001943,0.003424
1.890945,0.001948,0.003432
1.90095,0.001953,0.003441
1.910955,0.001958,0.003449
1.92096,0.001963,0.003458
1.930965,0.001967,0.003466
1.94097,0.001972,0.003474
1.950975,0.001976,0.003482
1.96098,0.001981,0.00349
1.970985,0.001985,0.003497
1.98099,0.001989,0.003505
1.990995,0.001994,0.003512
2.001001,0.001998,0.00352
2.011006,0.002002,0.003527
2.021011,0.002006,0.003534
2.031016,0.002009,0.003541
2.041021,0.002013,0.003547
2.051026,0.002017,0.003554
2.061031,0.002021,0.00356
2.071036,0.002024,0.003566
2.081041,0.002028,0.003573
2.091046,0.002031,0.003579
2.101051,0.002034,0.003584
2.111056,0.002038,0.00359
2.121061,0.002041,0.003596
2.131066,0.002044,0.003601
2.141071,0.002047,0.003606
2.151076,0.00205,0.003611
2.161081,0.002053,0.003616
2.171086,0.002055,0.003621
2.181091,0.002058,0.003626
2.191096,0.002061,0.003631
2.201101,0.002063,0.003635
2.211106,0.002065,0.003639
2.221111,0.002068,0.003643
2.231116,0.00207,0.003647
2.241121,0.002072,0.003651
2.251126,0.002074,0.003655
2.261131,0.002076,0.003658
2.271136,0.002078,0.003662
2.281141,0.00208,0.003665
2.291146,0.002082,0.003668
2.301151,0.002084,0.003671
2.311156,0.002085,0.003674
2.321161,0.002087,0.003677
2.331166,0.002088,0.003679
2.341171,0.00209,0.003682
2.351176,0.002091,0.003684
2.361181,0.002092,0.003686
2.371186,0.002093,0.003688
2.381191,0.002094,0.00369
2.391196,0.002095,0.003691
2.401201,0.002096,0.003693
2.411206,0.002097,0.003694
2.421211,0.002097,0.003695
2.431216,0.002098,0.003697
2.441221,0.002099,0.003697
2.451226,0.002099,0.003698
2.461231,0.002099,0.003699
2.471236,0.0021,0.003699
2.481241,0.0021,0.0037
2.491246,0.0021,0.0037
2.501251,0.0021,0.0037
2.511256,0.0021,0.0037
2.521261,0.0021,0.0037
2.531266,0.0021,0.003699
2.541271,0.002099,0.003699
2.551276,0.002099,0.003698
2.561281,0.002098,0.003697
2.571286,0.002098,0.003696
2.581291,0.002097,0.003695
2.591296,0.002097,0.003694
2.601301,0.002096,0.003693
2.611306,0.002095,0.003691
2.621311,0.002094,0.003689
2.631316,0.002093,0.003687
2.641321,0.002092,0.003685
2.651326,0.002091,0.003683
2.661331,0.002089,0.003681
2.671336,0.002088,0.003679
2.681341,0.002086,0.003676
2.691346,0.002085,0.003673
2.701351,0.002083,0.00367
2.711356,0.002082,0.003667
2.721361,0.00208,0.003664
2.731366,0.002078,0.003661
2.741371,0.002076,0.003658
2.751376,0.002074,0.003654
2.761381,0.002072,0.00365
2.771386,0.00207,0.003646
2.781391,0.002067,0.003642
2.791396,0.002065,0.003638
2.801401,0.002062,0.003634
2.811406,0.00206,0.003629
2.821411,0.002057,0.003625
2.831416,0.002055,0.00362
2.841421,0.002052,0.003615
2.851426,0.002049,0.00361
2.861431,0.002046,0.003605
2.871436,0.002043,0.0036
2.881441,0.00204,0.003594
2.891446,0.002037,0.003589
2.901451,0.002034,0.003583
2.911456,0.00203,0.003577
2.921461,0.002027,0.003571
2.931466,0.002023,0.003565
2.941471,0.00202,0.003559
2.951476,0.002016,0.003552
2.961481,0.002012,0.003546
2.971486,0.002009,0.003539
2.981491,0.002005,0.003532
2.991496,0.002001,0.003525
3.001501,0.001997,0.003518
3.011506,0.001992,0.003511
3.021511,0.001988,0.003503
3.031516,0.001984,0.003496
3.041521,0.00198,0.003488
3.051526,0.001975,0.00348
3.061531,0.001971,0.003472
3.071536,0.001966,0.003464
3.081541,0.001961,0.003456
3.091546,0.001957,0.003447
3.101551,0.001952,0.003439
3.111556,0.001947,0.00343
3.121561,0.001942,0.003421
3.131566,0.001937,0.003412
3.141571,0.001932,0.003403
3.151576,0.001926,0.003394
3.161581,0.001921,0.003385
3.171586,0.001916,0.003375
3.181591,0.00191,0.003366
3.191596,0.001905,0.003356
3.201601,0.001899,0.003346
3.211606,0.001894,0.003336
3.221611,0.001888,0.003326
3.231616,0.001882,0.003316
3.241621,0.001876,0.003306
3.251626,0.00187,0.003295
3.261631,0.001864,0.003284
3.271636,0.001858,0.003274
3.281641,0.001852,0.003263
3.291646,0.001846,0.003252
3.301651,0.001839,0.00324
3.311656,0.001833,0.003229
3.321661,0.001826,0.003218
3.331666,0.00182,0.003206
3.341671,0.001813,0.003195
3.351676,0.001806,0.003183
3.361681,0.0018,0.003171
3.371686,0.001793,0.003159
3.381691,0.001786,0.003147
3.391696,0.001779,0.003134
3.401701,0.001772,0.003122
3.411706,0.001765,0.003109
3.421711,0.001758,0.003097
3.431716,0.00175,0.003084
3.441721,0.001743,0.003071
3.451726,0.001736,0.003058
3.461731,0.001728,0.003045
3.471736,0.001721,0.003032
3.481741,0.001713,0.003018
3.491746,0.001705,0.003005
3.501751,0.001698,0.002991
3.511756,0.00169,0.002977
3.521761,0.001682,0.002963
3.531766,0.001674,0.002949
3.541771,0.001666,0.002935
3.551776,0.001658,0.002921
3.561781,0.00165,0.002907
3.571786,0.001642,0.002892
3.581791,0.001633,0.002878
3.591796,0.001625,0.002863
3.601801,0.001617,0.002848
3.611806,0.001608,0.002833
3.621811,0.0016,0.002818
3.631816,0.001591,0.002803
3.641821,0.001582,0.002788
3.651826,0.001574,0.002773
3.661831,0.001565,0.002757
3.671836,0.001556,0.002742
3.681841,0.001547,0.002726
3.691846,0.001538,0.00271
3.701851,0.001529,0.002694
3.711856,0.00152,0.002678
3.721861,0.001511,0.002662
3.731866,0.001502,0.002646
3.741871,0.001492,0.00263
3.751876,0.001483,0.002613
3.761881,0.001474,0.002597
3.771886,0.001464,0.00258
3.781891,0.001455,0.002563
3.791896,0.001445,0.002547
3.801901,0.001436,0.00253
3.811906,0.001426,0.002513
3.821911,0.001416,0.002495
3.831916,0.001407,0.002478
3.841921,0.001397,0.002461
3.851926,0.001387,0.002443
3.861931,0.001377,0.002426
3.871936,0.001367,0.002408
3.881941,0.001357,0.002391
3.891946,0.001347,0.002373
3.901951,0.001337,0.002355
3.911956,0.001326,0.002337
3.921961,0.001316,0.002319
3.931966,0.001306,0.002301
3.941971,0.001295,0.002282
3.951976,0.001285,0.002264
3.961981,0.001275,0.002246
3.971986,0.001264,0.002227
3.981991,0.001253,0.002209
3.991996,0.001243,0.00219
4.002001,0.001232,0.002171
4.012006,0.001221,0.002152
4.022011,0.001211,0.002133
4.032016,0.0012,0.002114
4.042021,0.001189,0.002095
4.052026,0.001178,0.002076
4.062031,0.001167,0.002057
4.072036,0.001156,0.002037
4.082041,0.001145,0.002018
4.092046,0.001134,0.001998
4.102051,0.001123,0.001979
4.112056,0.001112,0.001959
4.122061,0.001101,0.001939
4.132066,0.001089,0.001919
4.142071,0.001078,0.001899
4.152076,0.001067,0.001879
4.162081,0.001055,0.001859
4.172086,0.001044,0.001839
4.182091,0.001032,0.001819
4.192096,0.001021,0.001799
4.202101,0.001009,0.001778
4.212106,0.000998,0.001758
4.222111,0.000986,0.001737
4.232116,0.000974,0.001717
4.242121,0.000963,0.001696
4.252126,0.000951,0.001675
4.262131,0.000939,0.001655
4.272136,0.000927,0.001634
4.282141,0.000915,0.001613
4.292146,0.000904,0.001592
4.302151,0.000892,0.001571
4.312156,0.00088,0.00155
4.322161,0.000868,0.001529
4.332166,0.000856,0.001507
4.342171,0.000843,0.001486
4.352176,0.000831,0.001465
4.362181,0.000819,0.001443
4.372186,0.000807,0.001422
4.382191,0.000795,0.0014
4.392196,0.000783,0.001379
4.402201,0.00077,0.001357
4.412206,0.000758,0.001336
4.422211,0.000746,0.001314
4.432216,0.000733,0.001292
4.442221,0.000721,0.00127
4.452226,0.000709,0.001248
4.462231,0.000696,0.001227
4.472236,0.000684,0.001205
4.482241,0.000671,0.001183
4.492246,0.000659,0.00116
4.502251,0.000646,0.001138
4.512256,0.000634,0.001116
4.522261,0.000621,0.001094
4.532266,0.000608,0.001072
4.542271,0.000596,0.00105
4.552276,0.000583,0.001027
4.562281,0.00057,0.001005
4.572286,0.000558,0.000982
4.582291,0.000545,0.00096
4.592296,0.000532,0.000937
4.602301,0.000519,0.000915
4.612306,0.000507,0.000892
4.622311,0.000494,0.00087
4.632316,0.000481,0.000847
4.642321,0.000468,0.000825
4.652326,0.000455,0.000802
4.662331,0.000442,0.000779
4.672336,0.000429,0.000756
4.682341,0.000416,0.000734
4.692346,0.000403,0.000711
4.702351,0.00039,0.000688
4.712356,0.000377,0.000665
4.722361,0.000364,0.000642
4.732366,0.000351,0.000619
4.742371,0.000338,0.000596
4.752376,0.000325,0.000573
4.762381,0.000312,0.00055
4.772386,0.000299,0.000527
4.782391,0.000286,0.000504
4.792396,0.000273,0.000481
4.802401,0.00026,0.000458
4.812406,0.000247,0.000435
4.822411,0.000234,0.000412
4.832416,0.000221,0.000389
4.842421,0.000208,0.000366
4.852426,0.000194,0.000343
4.862431,0.000181,0.000319
4.872436,0.000168,0.000296
4.882441,0.000155,0.000273
4.892446,0.000142,0.00025
4.902451,0.000129,0.000227
4.912456,0.000115,0.000203
4.922461,0.000102,0.00018
4.932466,8.9e-05,0.000157
4.942471,7.6e-05,0.000134
4.952476,6.3e-05,0.00011
4.962481,5e-05,8.7e-05
4.972486,3.6e-05,6.4e-05
4.982491,2.3e-05,4.1e-05
4.992496,1e-05,1.7e-05
5.002501,-3e-06,-6e-06
5.012506,-1.7e-05,-2.9e-05
5.022511,-3e-05,-5.2e-05
5.032516,-4.3e-05,-7.6e-05
5.042521,-5.6e-05,-9.9e-05
5.052526,-6.9e-05,-0.000122
5.062531,-8.2e-05,-0.000145
5.072536,-9.6e-05,-0.000169
5.082541,-0.000109,-0.000192
5.092546,-0.000122,-0.000215
5.102551,-0.000135,-0.000238
5.112556,-0.000148,-0.000261
5.122561,-0.000162,-0.000285
5.132566,-0.000175,-0.000308
5.142571,-0.000188,-0.000331
5.152576,-0.000201,-0.000354
5.162581,-0.000214,-0.000377
5.172586,-0.000227,-0.0004
5.182591,-0.00024,-0.000424
5.192596,-0.000254,-0.000447
5.202601,-0.000267,-0.00047
5.212606,-0.00028,-0.000493
5.222611,-0.000293,-0.000516
5.232616,-0.000306,-0.000539
5.242621,-0.000319,-0.000562
5.252626,-0.000332,-0.000585
5.262631,-0.000345,-0.000608
5.272636,-0.000358,-0.000631
5.282641,-0.000371,-0.000654
5.292646,-0.000384,-0.000677
5.302651,-0.000397,-0.000699
5.312656,-0.00041,-0.000722
5.322661,-0.000423,-0.000745
5.332666,-0.000436,-0.000768
5.342671,-0.000449,-0.00079
5.352676,-0.000462,-0.000813
5.362681,-0.000474,-0.000836
5.372686,-0.000487,-0.000859
5.382691,-0.0005,-0.000881
5.392696,-0.000513,-0.000904
5.402701,-0.000526,-0.000926
5.412706,-0.000538,-0.000949
5.422711,-0.000551,-0.000971
5.432716,-0.000564,-0.000994
5.442721,-0.000577,-0.001016
5.452726,-0.000589,-0.001038
5.462731,-0.000602,-0.001061
5.472736,-0.000615,-0.001083
5.482741,-0.000627,-0.001105
5.492746,-0.00064,-0.001127
5.502751,-0.000652,-0.001149
5.512756,-0.000665,-0.001172
5.522761,-0.000677,-0.001194
5.532766,-0.00069,-0.001216
5.542771,-0.000702,-0.001238
5.552776,-0.000715,-0.001259
5.562781,-0.000727,-0.001281
5.572786,-0.00074,-0.001303
5.582791,-0.000752,-0.001325
5.592796,-0.000764,-0.001346
5.602801,-0.000776,-0.001368
5.612806,-0.000789,-0.00139
5.622811,-0.000801,-0.001411
5.632816,-0.000813,-0.001433
5.642821,-0.000825,-0.001454
5.652826,-0.000837,-0.001475
5.662831,-0.00085,-0.001497
5.672836,-0.000862,-0.001518
5.682841,-0.000874,-0.001539
5.692846,-0.000886,-0.00156
5.702851,-0.000898,-0.001581
5.712856,-0.000909,-0.001602
5.722861,-0.000921,-0.001623
5.732866,-0.000933,-0.001644
5.742871,-0.000945,-0.001665
5.752876,-0.000957,-0.001686
5.762881,-0.000968,-0.001706
5.772886,-0.00098,-0.001727
5.782891,-0.000992,-0.001748
5.792896,-0.001003,-0.001768
5.802901,-0.001015,-0.001788
5.812906,-0.001027,-0.001809
5.822911,-0.001038,-0.001829
5.832916,-0.00105,-0.001849
5.842921,-0.001061,-0.001869
5.852926,-0.001072,-0.001889
5.862931,-0.001084,-0.001909
5.872936,-0.001095,-0.001929
5.882941,-0.001106,-0.001949
5.892946,-0.001117,-0.001969
5.902951,-0.001129,-0.001988
5.912956,-0.00114,-0.002008
5.922961,-0.001151,-0.002027
5.932966,-0.001162,-0.002047
5.942971,-0.001173,-0.002066
5.952976,-0.001184,-0.002085
5.962981,-0.001195,-0.002105
5.972986,-0.001205,-0.002124
5.982991,-0.001216,-0.002143
5.992996,-0.001227,-0.002162
6.003002,-0.001238,-0.00218
6.013007,-0.001248,-0.002199
6.023012,-0.001259,-0.002218
6.033017,-0.001269,-0.002236
6.043022,-0.00128,-0.002255
6.053027,-0.00129,-0.002273
6.063032,-0.001301,-0.002292
6.073037,-0.001311,-0.00231
6.083042,-0.001321,-0.002328
6.093047,-0.001332,-0.002346
6.103052,-0.001342,-0.002364
6.113057,-0.001352,-0.002382
6.123062,-0.001362,-0.0024
6.133067,-0.001372,-0.002417
6.143072,-0.001382,-0.002435
6.153077,-0.001392,-0.002452
6.163082,-0.001402,-0.00247
6.173087,-0.001411,-0.002487
6.183092,-0.001421,-0.002504
6.193097,-0.001431,-0.002521
6.203102,-0.001441,-0.002538
6.213107,-0.00145,-0.002555
6.223112,-0.00146,-0.002572
6.233117,-0.001469,-0.002588
6.243122,-0.001478,-0.002605
6.253127,-0.001488,-0.002621
6.263132,-0.001497,-0.002638
6.273137,-0.001506,-0.002654
6.283142,-0.001516,-0.00267
6.293147,-0.001525,-0.002686
6.303152,-0.001534,-0.002702
6.313157,-0.001543,-0.002718
6.323162,-0.001552,-0.002734
6.333167,-0.00156,-0.002749
6.343172,-0.001569,-0.002765
6.353177,-0.001578,-0.00278
6.363182,-0.001587,-0.002796
6.373187,-0.001595,-0.002811
6.383192,-0.001604,-0.002826
6.393197,-0.001612,-0.002841
6.403202,-0.001621,-0.002856
6.413207,-0.001629,-0.00287
6.423212,-0.001637,-0.002885
6.433217,-0.001646,-0.002899
6.443222,-0.001654,-0.002914
6.453227,-0.001662,-0.002928
6.463232,-0.00167,-0.002942
6.473237,-0.001678,-0.002956
6.483242,-0.001686,-0.00297
6.493247,-0.001694,-0.002984
6.503252,-0.001701,-0.002998
6.513257,-0.001709,-0.003011
6.523262,-0.001717,-0.003025
6.533267,-0.001724,-0.003038
6.543272,-0.001732,-0.003051
6.553277,-0.001739,-0.003064
6.563282,-0.001747,-0.003077
6.573287,-0.001754,-0.00309
6.583292,-0.001761,-0.003103
6.593297,-0.001768,-0.003116
6.603302,-0.001775,-0.003128
6.613307,-0.001782,-0.00314
6.623312,-0.001789,-0.003153
6.633317,-0.001796,-0.003165
6.643322,-0.001803,-0.003177
6.653327,-0.00181,-0.003189
6.663332,-0.001816,-0.0032
6.673337,-0.001823,-0.003212
6.683342,-0.00183,-0.003224
6.693347,-0.001836,-0.003235
6.703352,-0.001842,-0.003246
6.713357,-0.001849,-0.003257
6.723362,-0.001855,-0.003268
6.733367,-0.001861,-0.003279
6.743372,-0.001867,-0.00329
6.753377,-0.001873,-0.0033
6.763382,-0.001879,-0.003311
6.773387,-0.001885,-0.003321
6.783392,-0.001891,-0.003331
6.793397,-0.001896,-0.003341
6.803402,-0.001902,-0.003351
6.813407,-0.001908,-0.003361
6.823412,-0.001913,-0.003371
6.833417,-0.001918,-0.00338
6.843422,-0.001924,-0.00339
6.853427,-0.001929,-0.003399
6.863432,-0.001934,-0.003408
6.873437,-0.001939,-0.003417
6.883442,-0.001944,-0.003426
6.893447,-0.001949,-0.003435
6.903452,-0.001954,-0.003443
6.913457,-0.001959,-0.003452
6.923462,-0.001964,-0.00346
6.933467,-0.001968,-0.003468
6.943472,-0.001973,-0.003476
6.953477,-0.001977,-0.003484
6.963482,-0.001982,-0.003492
6.973487,-0.001986,-0.003499
6.983492,-0.00199,-0.003507
6.993497,-0.001995,-0.003514
7.003502,-0.001999,-0.003521
7.013507,-0.002003,-0.003528
7.023512,-0.002007,-0.003535
7.033517,-0.00201,-0.003542
7.043522,-0.002014,-0.003549
7.053527,-0.002018,-0.003555
7.063532,-0.002022,-0.003562
7.073537,-0.002025,-0.003568
7.083542,-0.002029,-0.003574
7.093547,-0.002032,-0.00358
7.103552,-0.002035,-0.003586
7.113557,-0.002038,-0.003591
7.123562,-0.002042,-0.003597
7.133567,-0.002045,-0.003602
7.143572,-0.002048,-0.003608
7.153577,-0.00205,-0.003613
7.163582,-0.002053,-0.003618
7.173587,-0.002056,-0.003622
7.183592,-0.002059,-0.003627
7.193597,-0.002061,-0.003632
7.203602,-0.002064,-0.003636
7.213607,-0.002066,-0.00364
7.223612,-0.002068,-0.003644
7.233617,-0.002071,-0.003648
7.243622,-0.002073,-0.003652
7.253627,-0.002075,-0.003656
7.263632,-0.002077,-0.003659
7.273637,-0.002079,-0.003663
7.283642,-0.002081,-0.003666
7.293647,-0.002082,-0.003669
7.303652,-0.002084,-0.003672
7.313657,-0.002086,-0.003675
7.323662,-0.002087,-0.003677
7.333667,-0.002089,-0.00368
7.343672,-0.00209,-0.003682
7.353677,-0.002091,-0.003684
7.363682,-0.002092,-0.003686
7.373687,-0.002093,-0.003688
7.383692,-0.002094,-0.00369
7.393697,-0.002095,-0.003692
7.403702,-0.002096,-0.003693
7.413707,-0.002097,-0.003695
7.423712,-0.002098,-0.003696
7.433717,-0.002098,-0.003697
7.443722,-0.002099,-0.003698
7.453727,-0.002099,-0.003698
7.463732,-0.002099,-0.003699
7.473737,-0.0021,-0.003699
7.483742,-0.0021,-0.0037
7.493747,-0.0021,-0.0037
7.503752,-0.0021,-0.0037
7.513757,-0.0021,-0.0037
7.523762,-0.0021,-0.0037
7.533767,-0.0021,-0.003699
7.543772,-0.002099,-0.003699
7.553777,-0.002099,-0.003698
7.563782,-0.002098,-0.003697
7.573787,-0.002098,-0.003696
7.583792,-0.002097,-0.003695
7.593797,-0.002096,-0.003694
7.603802,-0.002096,-0.003692
7.613807,-0.002095,-0.003691
7.623812,-0.002094,-0.003689
7.633817,-0.002093,-0.003687
7.643822,-0.002091,-0.003685
7.653827,-0.00209,-0.003683
7.663832,-0.002089,-0.00368
7.673837,-0.002087,-0.003678
7.683842,-0.002086,-0.003675
7.693847,-0.002084,-0.003673
7.703852,-0.002083,-0.00367
7.713857,-0.002081,-0.003667
7.723862,-0.002079,-0.003663
7.733867,-0.002077,-0.00366
7.743872,-0.002075,-0.003657
7.753877,-0.002073,-0.003653
7.763882,-0.002071,-0.003649
7.773887,-0.002069,-0.003645
7.783892,-0.002067,-0.003641
7.793897,-0.002064,-0.003637
7.803902,-0.002062,-0.003633
7.813907,-0.002059,-0.003628
7.823912,-0.002057,-0.003624
7.833917,-0.002054,-0.003619
7.843922,-0.002051,-0.003614
7.853927,-0.002048,-0.003609
7.863932,-0.002045,-0.003604
7.873937,-0.002042,-0.003598
7.883942,-0.002039,-0.003593
7.893947,-0.002036,-0.003587
7.903952,-0.002033,-0.003581
7.913957,-0.002029,-0.003576
7.923962,-0.002026,-0.003569
7.933967,-0.002022,-0.003563
7.943972,-0.002019,-0.003557
7.953977,-0.002015,-0.00355
7.963982,-0.002011,-0.003544
7.973987,-0.002008,-0.003537
7.983992,-0.002004,-0.00353
7.993997,-0.002,-0.003523
8.004002,-0.001996,-0.003516
8.014007,-0.001991,-0.003509
8.024012,-0.001987,-0.003501
8.034017,-0.001983,-0.003494
8.044022,-0.001979,-0.003486
8.054027,-0.001974,-0.003478
8.064032,-0.00197,-0.00347
8.074037,-0.001965,-0.003462
8.084042,-0.00196,-0.003454
8.094047,-0.001955,-0.003445
8.104052,-0.001951,-0.003437
8.114057,-0.001946,-0.003428
8.124062,-0.001941,-0.003419
8.134067,-0.001936,-0.00341
8.144072,-0.00193,-0.003401
8.154077,-0.001925,-0.003392
8.164082,-0.00192,-0.003383
8.174087,-0.001914,-0.003373
8.184092,-0.001909,-0.003363
8.194097,-0.001903,-0.003354
8.204102,-0.001898,-0.003344
8.214107,-0.001892,-0.003334
8.224112,-0.001886,-0.003324
8.234117,-0.001881,-0.003313
8.244122,-0.001875,-0.003303
8.254127,-0.001869,-0.003292
8.264132,-0.001863,-0.003282
8.274137,-0.001856,-0.003271
8.284142,-0.00185,-0.00326
8.294147,-0.001844,-0.003249
8.304152,-0.001838,-0.003238
8.314157,-0.001831,-0.003226
8.324162,-0.001825,-0.003215
8.334167,-0.001818,-0.003203
8.344172,-0.001811,-0.003192
8.354177,-0.001805,-0.00318
8.364182,-0.001798,-0.003168
8.374187,-0.001791,-0.003156
8.384192,-0.001784,-0.003144
8.394197,-0.001777,-0.003131
8.404202,-0.00177,-0.003119
8.414207,-0.001763,-0.003106
8.424212,-0.001756,-0.003093
8.434217,-0.001748,-0.003081
8.444222,-0.001741,-0.003068
8.454227,-0.001734,-0.003055
8.464232,-0.001726,-0.003041
8.474237,-0.001719,-0.003028
8.484242,-0.001711,-0.003015
8.494247,-0.001703,-0.003001
8.504252,-0.001696,-0.002988
8.514257,-0.001688,-0.002974
8.524262,-0.00168,-0.00296
8.534267,-0.001672,-0.002946
8.544272,-0.001664,-0.002932
8.554277,-0.001656,-0.002917
8.564282,-0.001648,-0.002903
8.574287,-0.001639,-0.002889
8.584292,-0.001631,-0.002874
8.594297,-0.001623,-0.002859
8.604302,-0.001614,-0.002845
8.614307,-0.001606,-0.00283
8.624312,-0.001597,-0.002815
8.634317,-0.001589,-0.002799
8.644322,-0.00158,-0.002784
8.654327,-0.001571,-0.002769
8.664332,-0.001563,-0.002753
8.674337,-0.001554,-0.002738
8.684342,-0.001545,-0.002722
8.694347,-0.001536,-0.002706
8.704352,-0.001527,-0.00269
8.714357,-0.001518,-0.002674
8.724362,-0.001509,-0.002658
8.734367,-0.001499,-0.002642
8.744372,-0.00149,-0.002626
8.754377,-0.001481,-0.002609
8.764382,-0.001471,-0.002593
8.774387,-0.001462,-0.002576
8.784392,-0.001452,-0.002559
8.794397,-0.001443,-0.002542
8.804402,-0.001433,-0.002525
8.814407,-0.001424,-0.002508
8.824412,-0.001414,-0.002491
8.834417,-0.001404,-0.002474
8.844422,-0.001394,-0.002457
8.854427,-0.001384,-0.002439
8.864432,-0.001374,-0.002422
8.874437,-0.001364,-0.002404
8.884442,-0.001354,-0.002386
8.894447,-0.001344,-0.002368
8.904452,-0.001334,-0.00235
8.914457,-0.001324,-0.002332
8.924462,-0.001314,-0.002314
8.934467,-0.001303,-0.002296
8.944472,-0.001293,-0.002278
8.954477,-0.001282,-0.00226
8.964482,-0.001272,-0.002241
8.974487,-0.001261,-0.002223
8.984492,-0.001251,-0.002204
8.994497,-0.00124,-0.002185
9.004502,-0.00123,-0.002166
9.014507,-0.001219,-0.002147
9.024512,-0.001208,-0.002128
9.034517,-0.001197,-0.002109
9.044522,-0.001186,-0.00209
9.054527,-0.001175,-0.002071
9.064532,-0.001164,-0.002052
9.074537,-0.001153,-0.002032
9.084542,-0.001142,-0.002013
9.094547,-0.001131,-0.001993
9.104552,-0.00112,-0.001974
9.114557,-0.001109,-0.001954
9.124562,-0.001098,-0.001934
9.134567,-0.001086,-0.001914
9.144572,-0.001075,-0.001894
9.154577,-0.001064,-0.001874
9.164582,-0.001052,-0.001854
9.174587,-0.001041,-0.001834
9.184592,-0.001029,-0.001814
9.194597,-0.001018,-0.001793
9.204602,-0.001006,-0.001773
9.214607,-0.000995,-0.001753
9.224612,-0.000983,-0.001732
9.234617,-0.000971,-0.001712
9.244622,-0.00096,-0.001691
9.254627,-0.000948,-0.00167
9.264632,-0.000936,-0.001649
9.274637,-0.000924,-0.001629
9.284642,-0.000912,-0.001608
9.294647,-0.000901,-0.001587
9.304652,-0.000889,-0.001566
9.314657,-0.000877,-0.001544
9.324662,-0.000865,-0.001523
9.334667,-0.000853,-0.001502
9.344672,-0.00084,-0.001481
9.354677,-0.000828,-0.001459
9.364682,-0.000816,-0.001438
9.374687,-0.000804,-0.001417
9.384692,-0.000792,-0.001395
9.394697,-0.00078,-0.001374
9.404702,-0.000767,-0.001352
9.414707,-0.000755,-0.00133
9.424712,-0.000743,-0.001308
9.434717,-0.00073,-0.001287
9.444722,-0.000718,-0.001265
9.454727,-0.000705,-0.001243
9.464732,-0.000693,-0.001221
9.474737,-0.000681,-0.001199
9.484742,-0.000668,-0.001177
9.494747,-0.000656,-0.001155
9.504752,-0.000643,-0.001133
9.514757,-0.00063,-0.001111
9.524762,-0.000618,-0.001088
9.534767,-0.000605,-0.001066
9.544772,-0.000593,-0.001044
9.554777,-0.00058,-0.001022
9.564782,-0.000567,-0.000999
9.574787,-0.000554,-0.000977
9.584792,-0.000542,-0.000954
9.594797,-0.000529,-0.000932
9.604802,-0.000516,-0.000909
9.614807,-0.000503,-0.000887
9.624812,-0.00049,-0.000864
9.634817,-0.000478,-0.000842
9.644822,-0.000465,-0.000819
9.654827,-0.000452,-0.000796
9.664832,-0.000439,-0.000773
9.674837,-0.000426,-0.000751
9.684842,-0.000413,-0.000728
9.694847,-0.0004,-0.000705
9.704852,-0.000387,-0.000682
9.714857,-0.000374,-0.000659
9.724862,-0.000361,-0.000636
9.734867,-0.000348,-0.000614
9.744872,-0.000335,-0.000591
9.754877,-0.000322,-0.000568
9.764882,-0.000309,-0.000545
9.774887,-0.000296,-0.000522
9.784892,-0.000283,-0.000499
9.794897,-0.00027,-0.000475
9.804902,-0.000257,-0.000452
9.814907,-0.000244,-0.000429
9.824912,-0.000231,-0.000406
9.834917,-0.000217,-0.000383
9.844922,-0.000204,-0.00036
9.854927,-0.000191,-0.000337
9.864932,-0.000178,-0.000314
9.874937,-0.000165,-0.00029
9.884942,-0.000152,-0.000267
9.894947,-0.000139,-0.000244
9.904952,-0.000125,-0.000221
9.914957,-0.000112,-0.000198
9.924962,-9.9e-05,-0.000174
9.934967,-8.6e-05,-0.000151
9.944972,-7.3e-05,-0.000128
9.954977,-5.9e-05,-0.000105
9.964982,-4.6e-05,-8.1e-05
9.974987,-3.3e-05,-5.8e-05
9.984992,-2e-05,-3.5e-05
9.994997,-7e-06,-1.2e-05
10.005003,7e-06,1.2e-05
10.015008,2e-05,3.5e-05
10.025013,3.3e-05,5.8e-05
10.035018,4.6e-05,8.1e-05
10.045023,5.9e-05,0.000105
10.055028,7.3e-05,0.000128
10.065033,8.6e-05,0.000151
10.075038,9.9e-05,0.000174
10.085043,0.000112,0.000198
10.095048,0.000125,0.000221
10.105053,0.000139,0.000244
10.115058,0.000152,0.000267
10.125063,0.000165,0.00029
10.135068,0.000178,0.000314
10.145073,0.000191,0.000337
10.155078,0.000204,0.00036
10.165083,0.000217,0.000383
10.175088,0.000231,0.000406
10.185093,0.000244,0.000429
10.195098,0.000257,0.000452
10.205103,0.00027,0.000475
10.215108,0.000283,0.000499
10.225113,0.000296,0.000522
10.235118,0.000309,0.000545
10.245123,0.000322,0.000568
10.255128,0.000335,0.000591
10.265133,0.000348,0.000614
10.275138,0.000361,0.000636
10.285143,0.000374,0.000659
10.295148,0.000387,0.000682
10.305153,0.0004,0.000705
10.315158,0.000413,0.000728
10.325163,0.000426,0.000751
10.335168,0.000439,0.000773
10.345173,0.000452,0.000796
10.355178,0.000465,0.000819
10.365183,0.000478,0.000842
10.375188,0.00049,0.000864
10.385193,0.000503,0.000887
10.395198,0.000516,0.000909
10.405203,0.000529,0.000932
10.415208,0.000542,0.000954
10.425213,0.000554,0.000977
10.435218,0.000567,0.000999
10.445223,0.00058,0.001022
10.455228,0.000593,0.001044
10.465233,0.000605,0.001066
10.475238,0.000618,0.001088
10.485243,0.00063,0.001111
10.495248,0.000643,0.001133
10.505253,0.000656,0.001155
10.515258,0.000668,0.001177
10.525263,0.000681,0.001199
10.535268,0.000693,0.001221
10.545273,0.000705,0.001243
10.555278,0.000718,0.001265
10.565283,0.00073,0.001287
10.575288,0.000743,0.001308
10.585293,0.000755,0.00133
10.595298,0.000767,0.001352
10.605303,0.00078,0.001374
10.615308,0.000792,0.001395
10.625313,0.000804,0.001417
10.635318,0.000816,0.001438
10.645323,0.000828,0.001459
10.655328,0.00084,0.001481
10.665333,0.000853,0.001502
10.675338,0.000865,0.001523
10.685343,0.000877,0.001544
10.695348,0.000889,0.001566
10.705353,0.000901,0.001587
10.715358,0.000912,0.001608
10.725363,0.000924,0.001629
10.735368,0.000936,0.001649
10.745373,0.000948,0.00167
10.755378,0.00096,0.001691
10.765383,0.000971,0.001712
10.775388,0.000983,0.001732
10.785393,0.000995,0.001753
10.795398,0.001006,0.001773
10.805403,0.001018,0.001793
10.815408,0.001029,0.001814
10.825413,0.001041,0.001834
10.835418,0.001052,0.001854
10.845423,0.001064,0.001874
10.855428,0.001075,0.001894
10.865433,0.001086,0.001914
10.875438,0.001098,0.001934
10.885443,0.001109,0.001954
10.895448,0.00112,0.001974
10.905453,0.001131,0.001993
10.915458,0.001142,0.002013
10.925463,0.001153,0.002032
10.935468,0.001164,0.002052
10.945473,0.001175,0.002071
10.955478,0.001186,0.00209
10.965483,0.001197,0.002109
10.975488,0.001208,0.002128
10.985493,0.001219,0.002147
10.995498,0.00123,0.002166
11.005503,0.00124,0.002185
11.015508,0.001251,0.002204
11.025513,0.001261,0.002223
11.035518,0.001272,0.002241
11.045523,0.001282,0.00226
11.055528,0.001293,0.002278
11.065533,0.001303,0.002296
11.075538,0.001314,0.002314
11.085543,0.001324,0.002332
11.095548,0.001334,0.00235
11.105553,0.001344,0.002368
11.115558,0.001354,0.002386
11.125563,0.001364,0.002404
11.135568,0.001374,0.002422
11.145573,0.001384,0.002439
11.155578,0.001394,0.002457
11.165583,0.001404,0.002474
11.175588,0.001414,0.002491
11.185593,0.001424,0.002508
11.195598,0.001433,0.002525
11.205603,0.001443,0.002542
11.215608,0.001452,0.002559
11.225613,0.001462,0.002576
11.235618,0.001471,0.002593
11.245623,0.001481,0.002609
11.255628,0.00149,0.002626
11.265633,0.001499,0.002642
11.275638,0.001509,0.002658
11.285643,0.001518,0.002674
11.295648,0.001527,0.00269
11.305653,0.001536,0.002706
11.315658,0.001545,0.002722
11.325663,0.001554,0.002738
11.335668,0.001563,0.002753
11.345673,0.001571,0.002769
11.355678,0.00158,0.002784
11.365683,0.001589,0.002799
11.375688,0.001597,0.002815
11.385693,0.001606,0.00283
11.395698,0.001614,0.002845
11.405703,0.001623,0.002859
11.415708,0.001631,0.002874
11.425713,0.001639,0.002889
11.435718,0.001648,0.002903
11.445723,0.001656,0.002917
11.455728,0.001664,0.002932
11.465733,0.001672,0.002946
11.475738,0.00168,0.00296
11.485743,0.001688,0.002974
11.495748,0.001696,0.002988
11.505753,0.001703,0.003001
11.515758,0.001711,0.003015
11.525763,0.001719,0.003028
11.535768,0.001726,0.003041
11.545773,0.001734,0.003055
11.555778,0.001741,0.003068
11.565783,0.001748,0.003081
11.575788,0.001756,0.003093
11.585793,0.001763,0.003106
11.595798,0.00177,0.003119
11.605803,0.001777,0.003131
11.615808,0.001784,0.003144
11.625813,0.001791,0.003156
11.635818,0.001798,0.003168
11.645823,0.001805,0.00318
11.655828,0.001811,0.003192
11.665833,0.001818,0.003203
11.675838,0.001825,0.003215
11.685843,0.001831,0.003226
11.695848,0.001838,0.003238
11.705853,0.001844,0.003249
11.715858,0.00185,0.00326
11.725863,0.001856,0.003271
11.735868,0.001863,0.003282
11.745873,0.001869,0.003292
11.755878,0.001875,0.003303
11.765883,0.001881,0.003313
11.775888,0.001886,0.003324
11.785893,0.001892,0.003334
11.795898,0.001898,0.003344
11.805903,0.001903,0.003354
11.815908,0.001909,0.003363
11.825913,0.001914,0.003373
11.835918,0.00192,0.003383
11.845923,0.001925,0.003392
11.855928,0.00193,0.003401
11.865933,0.001936,0.00341
11.875938,0.001941,0.003419
11.885943,0.001946,0.003428
11.895948,0.001951,0.003437
11.905953,0.001955,0.003445
11.915958,0.00196,0.003454
11.925963,0.001965,0.003462
11.935968,0.00197,0.00347
11.945973,0.001974,0.003478
11.955978,0.001979,0.003486
11.965983,0.001983,0.003494
11.975988,0.001987,0.003501
11.985993,0.001991,0.003509
11.995998,0.001996,0.003516
12.006003,0.002,0.003523
12.016008,0.002004,0.00353
12.026013,0.002008,0.003537
12.036018,0.002011,0.003544
12.046023,0.002015,0.00355
12.056028,0.002019,0.003557
12.066033,0.002022,0.003563
12.076038,0.002026,0.003569
12.086043,0.002029,0.003576
12.096048,0.002033,0.003581
12.106053,0.002036,0.003587
12.116058,0.002039,0.003593
12.126063,0.002042,0.003598
12.136068,0.002045,0.003604
12.146073,0.002048,0.003609
12.156078,0.002051,0.003614
12.166083,0.002054,0.003619
12.176088,0.002057,0.003624
12.186093,0.002059,0.003628
12.196098,0.002062,0.003633
12.206103,0.002064,0.003637
12.216108,0.002067,0.003641
12.226113,0.002069,0.003645
12.236118,0.002071,0.003649
12.246123,0.002073,0.003653
12.256128,0.002075,0.003657
12.266133,0.002077,0.00366
12.276138,0.002079,0.003663
12.286143,0.002081,0.003667
12.296148,0.002083,0.00367
12.306153,0.002084,0.003673
12.316158,0.002086,0.003675
12.326163,0.002087,0.003678
12.336168,0.002089,0.00368
12.346173,0.00209,0.003683
12.356178,0.002091,0.003685
12.366183,0.002093,0.003687
12.376188,0.002094,0.003689
12.386193,0.002095,0.003691
12.396198,0.002096,0.003692
12.406203,0.002096,0.003694
12.416208,0.002097,0.003695
12.426213,0.002098,0.003696
12.436218,0.002098,0.003697
12.446223,0.002099,0.003698
12.456228,0.002099,0.003699
12.466233,0.0021,0.003699
12.476238,0.0021,0.0037
12.486243,0.0021,0.0037
12.496248,0.0021,0.0037
12.506253,0.0021,0.0037
12.516258,0.0021,0.0037
12.526263,0.0021,0.003699
12.536268,0.002099,0.003699
12.546273,0.002099,0.003698
12.556278,0.002099,0.003698
12.566283,0.002098,0.003697
12.576288,0.002098,0.003696
12.586293,0.002097,0.003695
12.596298,0.002096,0.003693
12.606303,0.002095,0.003692
12.616308,0.002094,0.00369
12.626313,0.002093,0.003688
12.636318,0.002092,0.003686
12.646323,0.002091,0.003684
12.656328,0.00209,0.003682
12.666333,0.002089,0.00368
12.676338,0.002087,0.003677
12.686343,0.002086,0.003675
12.696348,0.002084,0.003672
12.706353,0.002082,0.003669
12.716358,0.002081,0.003666
12.726363,0.002079,0.003663
12.736368,0.002077,0.003659
12.746373,0.002075,0.003656
12.756378,0.002073,0.003652
12.766383,0.002071,0.003648
12.776388,0.002068,0.003644
12.786393,0.002066,0.00364
12.796398,0.002064,0.003636
12.806403,0.002061,0.003632
12.816408,0.002059,0.003627
12.826413,0.002056,0.003622
12.836418,0.002053,0.003618
12.846423,0.00205,0.003613
12.856428,0.002048,0.003608
12.866433,0.002045,0.003602
12.876438,0.002042,0.003597
12.886443,0.002038,0.003591
12.896448,0.002035,0.003586
12.906453,0.002032,0.00358
12.916458,0.002029,0.003574
12.926463,0.002025,0.003568
12.936468,0.002022,0.003562
12.946473,0.002018,0.003555
12.956478,0.002014,0.003549
12.966483,0.00201,0.003542
12.976488,0.002007,0.003535
12.986493,0.002003,0.003528
12.996498,0.001999,0.003521
13.006503,0.001995,0.003514
13.016508,0.00199,0.003507
13.026513,0.001986,0.003499
13.036518,0.001982,0.003492
13.046523,0.001977,0.003484
13.056528,0.001973,0.003476
13.066533,0.001968,0.003468
13.076538,0.001964,0.00346
13.086543,0.001959,0.003452
13.096548,0.001954,0.003443
13.106553,0.001949,0.003435
13.116558,0.001944,0.003426
13.126563,0.001939,0.003417
13.136568,0.001934,0.003408
13.146573,0.001929,0.003399
13.156578,0.001924,0.00339
13.166583,0.001918,0.00338
13.176588,0.001913,0.003371
13.186593,0.001908,0.003361
13.196598,0.001902,0.003351
13.206603,0.001896,0.003341
13.216608,0.001891,0.003331
13.226613,0.001885,0.003321
13.236618,0.001879,0.003311
13.246623,0.001873,0.0033
13.256628,0.001867,0.00329
13.266633,0.001861,0.003279
13.276638,0.001855,0.003268
13.286643,0.001849,0.003257
13.296648,0.001842,0.003246
13.306653,0.001836,0.003235
13.316658,0.00183,0.003224
13.326663,0.001823,0.003212
13.336668,0.001816,0.0032
13.346673,0.00181,0.003189
13.356678,0.001803,0.003177
13.366683,0.001796,0.003165
13.376688,0.001789,0.003153
13.386693,0.001782,0.00314
13.396698,0.001775,0.003128
13.406703,0.001768,0.003116
13.416708,0.001761,0.003103
13.426713,0.001754,0.00309
13.436718,0.001747,0.003077
13.446723,0.001739,0.003064
13.456728,0.001732,0.003051
13.466733,0.001724,0.003038
13.476738,0.001717,0.003025
13.486743,0.001709,0.003011
13.496748,0.001701,0.002998
13.506753,0.001694,0.002984
13.516758,0.001686,0.00297
13.526763,0.001678,0.002956
13.536768,0.00167,0.002942
13.546773,0.001662,0.002928
13.556778,0.001654,0.002914
13.566783,0.001646,0.002899
13.576788,0.001637,0.002885
13.586793,0.001629,0.00287
13.596798,0.001621,0.002856
13.606803,0.001612,0.002841
13.616808,0.001604,0.002826
13.626813,0.001595,0.002811
13.636818,0.001587,0.002796
13.646823,0.001578,0.00278
13.656828,0.001569,0.002765
13.666833,0.00156,0.002749
13.676838,0.001552,0.002734
13.686843,0.001543,0.002718
13.696848,0.001534,0.002702
13.706853,0.001525,0.002686
13.716858,0.001516,0.00267
13.726863,0.001506,0.002654
13.736868,0.001497,0.002638
13.746873,0.001488,0.002621
13.756878,0.001478,0.002605
13.766883,0.001469,0.002588
13.776888,0.00146,0.002572
13.786893,0.00145,0.002555
13.796898,0.001441,0.002538
13.806903,0.001431,0.002521
13.816908,0.001421,0.002504
13.826913,0.001411,0.002487
13.836918,0.001402,0.00247
13.846923,0.001392,0.002452
13.856928,0.001382,0.002435
13.866933,0.001372,0.002417
13.876938,0.001362,0.0024
13.886943,0.001352,0.002382
13.896948,0.001342,0.002364
13.906953,0.001332,0.002346
13.916958,0.001321,0.002328
13.926963,0.001311,0.00231
13.936968,0.001301,0.002292
13.946973,0.00129,0.002273
13.956978,0.00128,0.002255
13.966983,0.001269,0.002236
13.976988,0.001259,0.002218
13.986993,0.001248,0.002199
13.996998,0.001238,0.00218
14.007004,0.001227,0.002162
14.017009,0.001216,0.002143
14.027014,0.001205,0.002124
14.037019,0.001195,0.002105
14.047024,0.001184,0.002085
14.057029,0.001173,0.002066
14.067034,0.001162,0.002047
14.077039,0.001151,0.002027
14.087044,0.00114,0.002008
14.097049,0.001129,0.001988
14.107054,0.001117,0.001969
14.117059,0.001106,0.001949
14.127064,0.001095,0.001929
14.137069,0.001084,0.001909
14.147074,0.001072,0.001889
14.157079,0.001061,0.001869
14.167084,0.00105,0.001849
14.177089,0.001038,0.001829
14.187094,0.001027,0.001809
14.197099,0.001015,0.001788
14.207104,0.001003,0.001768
14.217109,0.000992,0.001748
14.227114,0.00098,0.001727
14.237119,0.000968,0.001706
14.247124,0.000957,0.001686
14.257129,0.000945,0.001665
14.267134,0.000933,0.001644
14.277139,0.000921,0.001623
14.287144,0.000909,0.001602
14.297149,0.000898,0.001581
14.307154,0.000886,0.00156
14.317159,0.000874,0.001539
14.327164,0.000862,0.001518
14.337169,0.00085,0.001497
14.347174,0.000837,0.001475
14.357179,0.000825,0.001454
14.367184,0.000813,0.001433
14.377189,0.000801,0.001411
14.387194,0.000789,0.00139
14.397199,0.000776,0.001368
14.407204,0.000764,0.001346
14.417209,0.000752,0.001325
14.427214,0.00074,0.001303
14.437219,0.000727,0.001281
14.447224,0.000715,0.001259
14.457229,0.000702,0.001238
14.467234,0.00069,0.001216
14.477239,0.000677,0.001194
14.487244,0.000665,0.001172
14.497249,0.000652,0.001149
14.507254,0.00064,0.001127
14.517259,0.000627,0.001105
14.527264,0.000615,0.001083
14.537269,0.000602,0.001061
14.547274,0.000589,0.001038
14.557279,0.000577,0.001016
14.567284,0.000564,0.000994
14.577289,0.000551,0.000971
14.587294,0.000538,0.000949
14.597299,0.000526,0.000926
14.607304,0.000513,0.000904
14.617309,0.0005,0.000881
14.627314,0.000487,0.000859
14.637319,0.000474,0.000836
14.647324,0.000462,0.000813
14.657329,0.000449,0.00079
14.667334,0.000436,0.000768
14.677339,0.000423,0.000745
14.687344,0.00041,0.000722
14.697349,0.000397,0.000699
14.707354,0.000384,0.000677
14.717359,0.000371,0.000654
14.727364,0.000358,0.000631
14.737369,0.000345,0.000608
14.747374,0.000332,0.000585
14.757379,0.000319,0.000562
14.767384,0.000306,0.000539
14.777389,0.000293,0.000516
14.787394,0.00028,0.000493
14.797399,0.000267,0.00047
14.807404,0.000254,0.000447
14.817409,0.00024,0.000424
14.827414,0.000227,0.0004
14.837419,0.000214,0.000377
14.847424,0.000201,0.000354
14.857429,0.000188,0.000331
14.867434,0.000175,0.000308
14.877439,0.000162,0.000285
14.887444,0.000148,0.000261
14.897449,0.000135,0.000238
14.907454,0.000122,0.000215
14.917459,0.000109,0.000192
14.927464,9.6e-05,0.000169
14.937469,8.2e-05,0.000145
14.947474,6.9e-05,0.000122
14.957479,5.6e-05,9.9e-05
14.967484,4.3e-05,7.6e-05
14.977489,3e-05,5.2e-05
14.987494,1.7e-05,2.9e-05
14.997499,3e-06,6e-06
15.007504,-1e-05,-1.7e-05
15.017509,-2.3e-05,-4.1e-05
15.027514,-3.6e-05,-6.4e-05
15.037519,-5e-05,-8.7e-05
15.047524,-6.3e-05,-0.00011
15.057529,-7.6e-05,-0.000134
15.067534,-8.9e-05,-0.000157
15.077539,-0.000102,-0.00018
15.087544,-0.000115,-0.000203
15.097549,-0.000129,-0.000227
15.107554,-0.000142,-0.00025
15.117559,-0.000155,-0.000273
15.127564,-0.000168,-0.000296
15.137569,-0.000181,-0.000319
15.147574,-0.000194,-0.000343
15.157579,-0.000208,-0.000366
15.167584,-0.000221,-0.000389
15.177589,-0.000234,-0.000412
15.187594,-0.000247,-0.000435
15.197599,-0.00026,-0.000458
15.207604,-0.000273,-0.000481
15.217609,-0.000286,-0.000504
15.227614,-0.000299,-0.000527
15.237619,-0.000312,-0.00055
15.247624,-0.000325,-0.000573
15.257629,-0.000338,-0.000596
15.267634,-0.000351,-0.000619
15.277639,-0.000364,-0.000642
15.287644,-0.000377,-0.000665
15.297649,-0.00039,-0.000688
15.307654,-0.000403,-0.000711
15.317659,-0.000416,-0.000734
15.327664,-0.000429,-0.000756
15.337669,-0.000442,-0.000779
15.347674,-0.000455,-0.000802
15.357679,-0.000468,-0.000825
15.367684,-0.000481,-0.000847
15.377689,-0.000494,-0.00087
15.387694,-0.000507,-0.000892
15.397699,-0.000519,-0.000915
15.407704,-0.000532,-0.000937
15.417709,-0.000545,-0.00096
15.427714,-0.000558,-0.000982
15.437719,-0.00057,-0.001005
15.447724,-0.000583,-0.001027
15.457729,-0.000596,-0.00105
15.467734,-0.000608,-0.001072
15.477739,-0.000621,-0.001094
15.487744,-0.000634,-0.001116
15.497749,-0.000646,-0.001138
15.507754,-0.000659,-0.00116
15.517759,-0.000671,-0.001183
15.527764,-0.000684,-0.001205
15.537769,-0.000696,-0.001227
15.547774,-0.000709,-0.001248
15.557779,-0.000721,-0.00127
15.567784,-0.000733,-0.001292
15.577789,-0.000746,-0.001314
15.587794,-0.000758,-0.001336
15.597799,-0.00077,-0.001357
15.607804,-0.000783,-0.001379
15.617809,-0.000795,-0.0014
15.627814,-0.000807,-0.001422
15.637819,-0.000819,-0.001443
15.647824,-0.000831,-0.001465
15.657829,-0.000843,-0.001486
15.667834,-0.000856,-0.001507
15.677839,-0.000868,-0.001529
15.687844,-0.00088,-0.00155
15.697849,-0.000892,-0.001571
15.707854,-0.000904,-0.001592
15.717859,-0.000915,-0.001613
15.727864,-0.000927,-0.001634
15.737869,-0.000939,-0.001655
15.747874,-0.000951,-0.001675
15.757879,-0.000963,-0.001696
15.767884,-0.000974,-0.001717
15.777889,-0.000986,-0.001737
15.787894,-0.000998,-0.001758
15.797899,-0.001009,-0.001778
15.807904,-0.001021,-0.001799
15.817909,-0.001032,-0.001819
15.827914,-0.001044,-0.001839
15.837919,-0.001055,-0.001859
15.847924,-0.001067,-0.001879
15.857929,-0.001078,-0.001899
15.867934,-0.001089,-0.001919
15.877939,-0.001101,-0.001939
15.887944,-0.001112,-0.001959
15.897949,-0.001123,-0.001979
15.907954,-0.001134,-0.001998
15.917959,-0.001145,-0.002018
15.927964,-0.001156,-0.002037
15.937969,-0.001167,-0.002057
15.947974,-0.001178,-0.002076
15.957979,-0.001189,-0.002095
15.967984,-0.0012,-0.002114
15.977989,-0.001211,-0.002133
15.987994,-0.001221,-0.002152
15.997999,-0.001232,-0.002171
16.008004,-0.001243,-0.00219
16.018009,-0.001253,-0.002209
16.028014,-0.001264,-0.002227
16.038019,-0.001275,-0.002246
16.048024,-0.001285,-0.002264
16.058029,-0.001295,-0.002282
16.068034,-0.001306,-0.002301
16.078039,-0.001316,-0.002319
16.088044,-0.001326,-0.002337
16.098049,-0.001337,-0.002355
16.108054,-0.001347,-0.002373
16.118059,-0.001357,-0.002391
16.128064,-0.001367,-0.002408
16.138069,-0.001377,-0.002426
16.148074,-0.001387,-0.002443
16.158079,-0.001397,-0.002461
16.168084,-0.001407,-0.002478
16.178089,-0.001416,-0.002495
16.188094,-0.001426,-0.002513
16.198099,-0.001436,-0.00253
16.208104,-0.001445,-0.002547
16.218109,-0.001455,-0.002563
16.228114,-0.001464,-0.00258
16.238119,-0.001474,-0.002597
16.248124,-0.001483,-0.002613
16.258129,-0.001492,-0.00263
16.268134,-0.001502,-0.002646
16.278139,-0.001511,-0.002662
16.288144,-0.00152,-0.002678
16.298149,-0.001529,-0.002694
16.308154,-0.001538,-0.00271
16.318159,-0.001547,-0.002726
16.328164,-0.001556,-0.002742
16.338169,-0.001565,-0.002757
16.348174,-0.001574,-0.002773
16.358179,-0.001582,-0.002788
16.368184,-0.001591,-0.002803
16.378189,-0.0016,-0.002818
16.388194,-0.001608,-0.002833
16.398199,-0.001617,-0.002848
16.408204,-0.001625,-0.002863
16.418209,-0.001633,-0.002878
16.428214,-0.001642,-0.002892
16.438219,-0.00165,-0.002907
16.448224,-0.001658,-0.002921
16.458229,-0.001666,-0.002935
16.468234,-0.001674,-0.002949
16.478239,-0.001682,-0.002963
16.488244,-0.00169,-0.002977
16.498249,-0.001698,-0.002991
16.508254,-0.001705,-0.003005
16.518259,-0.001713,-0.003018
16.528264,-0.001721,-0.003032
16.538269,-0.001728,-0.003045
16.548274,-0.001736,-0.003058
16.558279,-0.001743,-0.003071
16.568284,-0.00175,-0.003084
16.578289,-0.001758,-0.003097
16.588294,-0.001765,-0.003109
16.598299,-0.001772,-0.003122
16.608304,-0.001779,-0.003134
16.618309,-0.001786,-0.003147
16.628314,-0.001793,-0.003159
16.638319,-0.0018,-0.003171
16.648324,-0.001806,-0.003183
16.658329,-0.001813,-0.003195
16.668334,-0.00182,-0.003206
16.678339,-0.001826,-0.003218
16.688344,-0.001833,-0.003229
16.698349,-0.001839,-0.00324
16.708354,-0.001846,-0.003252
16.718359,-0.001852,-0.003263
16.728364,-0.001858,-0.003274
16.738369,-0.001864,-0.003284
16.748374,-0.00187,-0.003295
16.758379,-0.001876,-0.003306
16.768384,-0.001882,-0.003316
16.778389,-0.001888,-0.003326
16.788394,-0.001894,-0.003336
16.798399,-0.001899,-0.003346
16.808404,-0.001905,-0.003356
16.818409,-0.00191,-0.003366
16.828414,-0.001916,-0.003375
16.838419,-0.001921,-0.003385
16.848424,-0.001926,-0.003394
16.858429,-0.001932,-0.003403
16.868434,-0.001937,-0.003412
16.878439,-0.001942,-0.003421
16.888444,-0.001947,-0.00343
16.898449,-0.001952,-0.003439
16.908454,-0.001957,-0.003447
16.918459,-0.001961,-0.003456
16.928464,-0.001966,-0.003464
16.938469,-0.001971,-0.003472
16.948474,-0.001975,-0.00348
16.958479,-0.00198,-0.003488
16.968484,-0.001984,-0.003496
16.978489,-0.001988,-0.003503
16.988494,-0.001992,-0.003511
16.998499,-0.001997,-0.003518
17.008504,-0.002001,-0.003525
17.018509,-0.002005,-0.003532
17.028514,-0.002009,-0.003539
17.038519,-0.002012,-0.003546
17.048524,-0.002016,-0.003552
17.058529,-0.00202,-0.003559
17.068534,-0.002023,-0.003565
17.078539,-0.002027,-0.003571
17.088544,-0.00203,-0.003577
17.098549,-0.002034,-0.003583
17.108554,-0.002037,-0.003589
17.118559,-0.00204,-0.003594
17.128564,-0.002043,-0.0036
17.138569,-0.002046,-0.003605
17.148574,-0.002049,-0.00361
17.158579,-0.002052,-0.003615
17.168584,-0.002055,-0.00362
17.178589,-0.002057,-0.003625
17.188594,-0.00206,-0.003629
17.198599,-0.002062,-0.003634
17.208604,-0.002065,-0.003638
17.218609,-0.002067,-0.003642
17.228614,-0.00207,-0.003646
17.238619,-0.002072,-0.00365
17.248624,-0.002074,-0.003654
17.258629,-0.002076,-0.003658
17.268634,-0.002078,-0.003661
17.278639,-0.00208,-0.003664
17.288644,-0.002082,-0.003667
17.298649,-0.002083,-0.00367
17.308654,-0.002085,-0.003673
17.318659,-0.002086,-0.003676
17.328664,-0.002088,-0.003679
17.338669,-0.002089,-0.003681
17.348674,-0.002091,-0.003683
17.358679,-0.002092,-0.003685
17.368684,-0.002093,-0.003687
17.378689,-0.002094,-0.003689
17.388694,-0.002095,-0.003691
17.398699,-0.002096,-0.003693
17.408704,-0.002097,-0.003694
17.418709,-0.002097,-0.003695
17.428714,-0.002098,-0.003696
17.438719,-0.002098,-0.003697
17.448724,-0.002099,-0.003698
17.458729,-0.002099,-0.003699
17.468734,-0.0021,-0.003699
17.478739,-0.0021,-0.0037
17.488744,-0.0021,-0.0037
17.498749,-0.0021,-0.0037
17.508754,-0.0021,-0.0037
17.518759,-0.0021,-0.0037
17.528764,-0.0021,-0.003699
17.538769,-0.002099,-0.003699
17.548774,-0.002099,-0.003698
17.558779,-0.002099,-0.003697
17.568784,-0.002098,-0.003697
17.578789,-0.002097,-0.003695
17.588794,-0.002097,-0.003694
17.598799,-0.002096,-0.003693
17.608804,-0.002095,-0.003691
17.618809,-0.002094,-0.00369
17.628814,-0.002093,-0.003688
17.638819,-0.002092,-0.003686
17.648824,-0.002091,-0.003684
17.658829,-0.00209,-0.003682
17.668834,-0.002088,-0.003679
17.678839,-0.002087,-0.003677
17.688844,-0.002085,-0.003674
17.698849,-0.002084,-0.003671
17.708854,-0.002082,-0.003668
17.718859,-0.00208,-0.003665
17.728864,-0.002078,-0.003662
17.738869,-0.002076,-0.003658
17.748874,-0.002074,-0.003655
17.758879,-0.002072,-0.003651
17.768884,-0.00207,-0.003647
17.778889,-0.002068,-0.003643
17.788894,-0.002065,-0.003639
17.798899,-0.002063,-0.003635
17.808904,-0.002061,-0.003631
17.818909,-0.002058,-0.003626
17.828914,-0.002055,-0.003621
17.838919,-0.002053,-0.003616
17.848924,-0.00205,-0.003611
17.858929,-0.002047,-0.003606
17.868934,-0.002044,-0.003601
17.878939,-0.002041,-0.003596
17.888944,-0.002038,-0.00359
17.898949,-0.002034,-0.003584
17.908954,-0.002031,-0.003579
17.918959,-0.002028,-0.003573
17.928964,-0.002024,-0.003566
17.938969,-0.002021,-0.00356
17.948974,-0.002017,-0.003554
17.958979,-0.002013,-0.003547
17.968984,-0.002009,-0.003541
17.978989,-0.002006,-0.003534
17.988994,-0.002002,-0.003527
17.998999,-0.001998,-0.00352
18.009005,-0.001994,-0.003512
18.01901,-0.001989,-0.003505
18.029015,-0.001985,-0.003497
18.03902,-0.001981,-0.00349
18.049025,-0.001976,-0.003482
18.05903,-0.001972,-0.003474
18.069035,-0.001967,-0.003466
18.07904,-0.001963,-0.003458
18.089045,-0.001958,-0.003449
18.09905,-0.001953,-0.003441
18.109055,-0.001948,-0.003432
18.11906,-0.001943,-0.003424
18.129065,-0.001938,-0.003415
18.13907,-0.001933,-0.003406
18.149075,-0.001928,-0.003397
18.15908,-0.001922,-0.003387
18.169085,-0.001917,-0.003378
18.17909,-0.001912,-0.003368
18.189095,-0.001906,-0.003359
18.1991,-0.001901,-0.003349
18.209105,-0.001895,-0.003339
18.21911,-0.001889,-0.003329
18.229115,-0.001883,-0.003318
18.23912,-0.001878,-0.003308
18.249125,-0.001872,-0.003298
18.25913,-0.001866,-0.003287
18.269135,-0.00186,-0.003276
18.27914,-0.001853,-0.003265
18.289145,-0.001847,-0.003254
18.29915,-0.001841,-0.003243
18.309155,-0.001834,-0.003232
18.31916,-0.001828,-0.003221
18.329165,-0.001821,-0.003209
18.33917,-0.001815,-0.003197
18.349175,-0.001808,-0.003186
18.35918,-0.001801,-0.003174
18.369185,-0.001795,-0.003162
18.37919,-0.001788,-0.00315
18.389195,-0.001781,-0.003137
18.3992,-0.001774,-0.003125
18.409205,-0.001767,-0.003112
18.41921,-0.001759,-0.0031
18.429215,-0.001752,-0.003087
18.43922,-0.001745,-0.003074
18.449225,-0.001737,-0.003061
18.45923,-0.00173,-0.003048
18.469235,-0.001722,-0.003035
18.47924,-0.001715,-0.003021
18.489245,-0.001707,-0.003008
18.49925,-0.0017,-0.002994
18.509255,-0.001692,-0.002981
18.51926,-0.001684,-0.002967
18.529265,-0.001676,-0.002953
18.53927,-0.001668,-0.002939
18.549275,-0.00166,-0.002925
18.55928,-0.001652,-0.00291
18.569285,-0.001644,-0.002896
18.57929,-0.001635,-0.002881
18.589295,-0.001627,-0.002867
18.5993,-0.001619,-0.002852
18.609305,-0.00161,-0.002837
18.61931,-0.001602,-0.002822
18.629315,-0.001593,-0.002807
18.63932,-0.001585,-0.002792
18.649325,-0.001576,-0.002776
18.65933,-0.001567,-0.002761
18.669335,-0.001558,-0.002745
18.67934,-0.001549,-0.00273
18.689345,-0.00154,-0.002714
18.69935,-0.001531,-0.002698
18.709355,-0.001522,-0.002682
18.71936,-0.001513,-0.002666
18.729365,-0.001504,-0.00265
18.73937,-0.001495,-0.002634
18.749375,-0.001486,-0.002617
18.75938,-0.001476,-0.002601
18.769385,-0.001467,-0.002584
18.77939,-0.001457,-0.002568
18.789395,-0.001448,-0.002551
18.7994,-0.001438,-0.002534
18.809405,-0.001428,-0.002517
18.81941,-0.001419,-0.0025
18.829415,-0.001409,-0.002483
18.83942,-0.001399,-0.002465
18.849425,-0.001389,-0.002448
18.85943,-0.001379,-0.00243
18.869435,-0.001369,-0.002413
18.87944,-0.001359,-0.002395
18.889445,-0.001349,-0.002377
18.89945,-0.001339,-0.002359
18.909455,-0.001329,-0.002341
18.91946,-0.001319,-0.002323
18.929465,-0.001308,-0.002305
18.93947,-0.001298,-0.002287
18.949475,-0.001288,-0.002269
18.95948,-0.001277,-0.00225
18.969485,-0.001267,-0.002232
18.97949,-0.001256,-0.002213
18.989495,-0.001246,-0.002195
18.9995,-0.001235,-0.002176
19.009505,-0.001224,-0.002157
19.01951,-0.001213,-0.002138
19.029515,-0.001203,-0.002119
19.03952,-0.001192,-0.0021
19.049525,-0.001181,-0.002081
19.05953,-0.00117,-0.002061
19.069535,-0.001159,-0.002042
19.07954,-0.001148,-0.002023
19.089545,-0.001137,-0.002003
19.09955,-0.001126,-0.001983
19.109555,-0.001115,-0.001964
19.11956,-0.001103,-0.001944
19.129565,-0.001092,-0.001924
19.13957,-0.001081,-0.001904
19.149575,-0.001069,-0.001884
19.15958,-0.001058,-0.001864
19.169585,-0.001047,-0.001844
19.17959,-0.001035,-0.001824
19.189595,-0.001024,-0.001804
19.1996,-0.001012,-0.001783
19.209605,-0.001001,-0.001763
19.21961,-0.000989,-0.001742
19.229615,-0.000977,-0.001722
19.23962,-0.000966,-0.001701
19.249625,-0.000954,-0.001681
19.25963,-0.000942,-0.00166
19.269635,-0.00093,-0.001639
19.27964,-0.000918,-0.001618
19.289645,-0.000906,-0.001597
19.29965,-0.000895,-0.001576
19.309655,-0.000883,-0.001555
19.31966,-0.000871,-0.001534
19.329665,-0.000859,-0.001513
19.33967,-0.000847,-0.001491
19.349675,-0.000834,-0.00147
19.35968,-0.000822,-0.001449
19.369685,-0.00081,-0.001427
19.37969,-0.000798,-0.001406
19.389695,-0.000786,-0.001384
19.3997,-0.000773,-0.001363
19.409705,-0.000761,-0.001341
19.41971,-0.000749,-0.001319
19.429715,-0.000736,-0.001298
19.43972,-0.000724,-0.001276
19.449725,-0.000712,-0.001254
19.45973,-0.000699,-0.001232
19.469735,-0.000687,-0.00121
19.47974,-0.000674,-0.001188
19.489745,-0.000662,-0.001166
19.49975,-0.000649,-0.001144
19.509755,-0.000637,-0.001122
19.51976,-0.000624,-0.0011
19.529765,-0.000611,-0.001077
19.53977,-0.000599,-0.001055
19.549775,-0.000586,-0.001033
19.55978,-0.000573,-0.00101
19.569785,-0.000561,-0.000988
19.57979,-0.000548,-0.000966
19.589795,-0.000535,-0.000943
19.5998,-0.000523,-0.000921
19.609805,-0.00051,-0.000898
19.61981,-0.000497,-0.000875
19.629815,-0.000484,-0.000853
19.63982,-0.000471,-0.00083
19.649825,-0.000458,-0.000808
19.65983,-0.000445,-0.000785
19.669835,-0.000433,-0.000762
19.67984,-0.00042,-0.000739
19.689845,-0.000407,-0.000716
19.69985,-0.000394,-0.000694
19.709855,-0.000381,-0.000671
19.71986,-0.000368,-0.000648
19.729865,-0.000355,-0.000625
19.73987,-0.000342,-0.000602
19.749875,-0.000329,-0.000579
19.75988,-0.000316,-0.000556
19.769885,-0.000303,-0.000533
19.77989,-0.00029,-0.00051
19.789895,-0.000276,-0.000487
19.7999,-0.000263,-0.000464
19.809905,-0.00025,-0.000441
19.81991,-0.000237,-0.000418
19.829915,-0.000224,-0.000395
19.83992,-0.000211,-0.000372
19.849925,-0.000198,-0.000348
19.85993,-0.000185,-0.000325
19.869935,-0.000171,-0.000302
19.87994,-0.000158,-0.000279
19.889945,-0.000145,-0.000256
19.89995,-0.000132,-0.000232
19.909955,-0.000119,-0.000209
19.91996,-0.000106,-0.000186
19.929965,-9.2e-05,-0.000163
19.93997,-7.9e-05,-0.00014
19.949975,-6.6e-05,-0.000116
19.95998,-5.3e-05,-9.3e-05
19.969985,-4e-05,-7e-05
19.97999,-2.6e-05,-4.7e-05
19.989995,-1.3e-05,-2.3e-05
20.0,-0.0,-0.0
