Time (s),Normal Strain,Shear Strain
0.0,0.0,0.0
0.010005,2.3e-05,4e-05
0.02001,4.7e-05,8e-05
0.030015,7e-05,0.000121
0.04002,9.3e-05,0.000161
0.050025,0.000116,0.000201
0.06003,0.00014,0.000241
0.070035,0.000163,0.000282
0.08004,0.000186,0.000322
0.090045,0.000209,0.000362
0.10005,0.000232,0.000402
0.110055,0.000256,0.000442
0.12006,0.000279,0.000482
0.130065,0.000302,0.000522
0.14007,0.000325,0.000563
0.150075,0.000348,0.000603
0.16008,0.000372,0.000643
0.170085,0.000395,0.000683
0.18009,0.000418,0.000723
0.190095,0.000441,0.000763
0.2001,0.000464,0.000803
0.210105,0.000487,0.000842
0.22011,0.00051,0.000882
0.230115,0.000533,0.000922
0.24012,0.000556,0.000962
0.250125,0.000579,0.001002
0.26013,0.000602,0.001041
0.270135,0.000625,0.001081
0.28014,0.000648,0.001121
0.290145,0.000671,0.00116
0.30015,0.000694,0.0012
0.310155,0.000716,0.001239
0.32016,0.000739,0.001279
0.330165,0.000762,0.001318
0.34017,0.000785,0.001358
0.350175,0.000808,0.001397
0.36018,0.00083,0.001436
0.370185,0.000853,0.001475
0.38019,0.000875,0.001514
0.390195,0.000898,0.001553
0.4002,0.000921,0.001592
0.410205,0.000943,0.001631
0.42021,0.000966,0.00167
0.430215,0.000988,0.001709
0.44022,0.00101,0.001748
0.450225,0.001033,0.001786
0.46023,0.001055,0.001825
0.470235,0.001077,0.001864
0.48024,0.0011,0.001902
0.490245,0.001122,0.00194
0.50025,0.001144,0.001979
0.510255,0.001166,0.002017
0.52026,0.001188,0.002055
0.530265,0.00121,0.002093
0.54027,0.001232,0.002131
0.550275,0.001254,0.002169
0.56028,0.001276,0.002207
0.570285,0.001298,0.002244
0.58029,0.001319,0.002282
0.590295,0.001341,0.00232
0.6003,0.001363,0.002357
0.610305,0.001384,0.002394
0.62031,0.001406,0.002432
0.630315,0.001427,0.002469
0.64032,0.001449,0.002506
0.650325,0.00147,0.002543
0.66033,0.001491,0.00258
0.670335,0.001513,0.002617
0.68034,0.001534,0.002653
0.690345,0.001555,0.00269
0.70035,0.001576,0.002726
0.710355,0.001597,0.002763
0.72036,0.001618,0.002799
0.730365,0.001639,0.002835
0.74037,0.00166,0.002871
0.750375,0.001681,0.002907
0.76038,0.001701,0.002943
0.770385,0.001722,0.002978
0.78039,0.001742,0.003014
0.790395,0.001763,0.003049
0.8004,0.001783,0.003085
0.810405,0.001804,0.00312
0.82041,0.001824,0.003155
0.830415,0.001844,0.00319
0.84042,0.001864,0.003225
0.850425,0.001884,0.003259
0.86043,0.001904,0.003294
0.870435,0.001924,0.003328
0.88044,0.001944,0.003363
0.890445,0.001964,0.003397
0.90045,0.001983,0.003431
0.910455,0.002003,0.003465
0.92046,0.002023,0.003498
0.930465,0.002042,0.003532
0.94047,0.002061,0.003566
0.950475,0.002081,0.003599
0.96048,0.0021,0.003632
0.970485,0.002119,0.003665
0.98049,0.002138,0.003698
0.990495,0.002157,0.003731
1.0005,0.002176,0.003763
1.010505,0.002195,0.003796
1.02051,0.002213,0.003828
1.030515,0.002232,0.00386
1.04052,0.00225,0.003892
1.050525,0.002269,0.003924
1.06053,0.002287,0.003956
1.070535,0.002305,0.003988
1.08054,0.002323,0.004019
1.090545,0.002341,0.00405
1.10055,0.002359,0.004081
1.110555,0.002377,0.004112
1.12056,0.002395,0.004143
1.130565,0.002413,0.004173
1.14057,0.00243,0.004204
1.150575,0.002448,0.004234
1.16058,0.002465,0.004264
1.170585,0.002483,0.004294
1.18059,0.0025,0.004324
1.190595,0.002517,0.004353
1.2006,0.002534,0.004383
1.210605,0.002551,0.004412
1.22061,0.002568,0.004441
1.230615,0.002584,0.00447
1.24062,0.002601,0.004499
1.250625,0.002617,0.004527
1.26063,0.002634,0.004556
1.270635,0.00265,0.004584
1.28064,0.002666,0.004612
1.290645,0.002682,0.00464
1.30065,0.002698,0.004667
1.310655,0.002714,0.004695
1.32066,0.00273,0.004722
1.330665,0.002745,0.004749
1.34067,0.002761,0.004776
1.350675,0.002776,0.004803
1.36068,0.002792,0.004829
1.370685,0.002807,0.004855
1.38069,0.002822,0.004881
1.390695,0.002837,0.004907
1.4007,0.002852,0.004933
1.410705,0.002867,0.004959
1.42071,0.002881,0.004984
1.430715,0.002896,0.005009
1.44072,0.00291,0.005034
1.450725,0.002925,0.005059
1.46073,0.002939,0.005083
1.470735,0.002953,0.005108
1.48074,0.002967,0.005132
1.490745,0.002981,0.005156
1.50075,0.002994,0.005179
1.510755,0.003008,0.005203
1.52076,0.003021,0.005226
1.530765,0.003035,0.005249
1.54077,0.003048,0.005272
1.550775,0.003061,0.005295
1.56078,0.003074,0.005318
1.570785,0.003087,0.00534
1.58079,0.0031,0.005362
1.590795,0.003112,0.005384
1.6008,0.003125,0.005405
1.610805,0.003137,0.005427
1.62081,0.00315,0.005448
1.630815,0.003162,0.005469
1.64082,0.003174,0.00549
1.650825,0.003186,0.00551
1.66083,0.003197,0.005531
1.670835,0.003209,0.005551
1.68084,0.003221,0.005571
1.690845,0.003232,0.005591
1.70085,0.003243,0.00561
1.710855,0.003254,0.005629
1.72086,0.003265,0.005648
1.730865,0.003276,0.005667
1.74087,0.003287,0.005686
1.750875,0.003298,0.005704
1.76088,0.003308,0.005722
1.770885,0.003318,0.00574
1.78089,0.003329,0.005758
1.790895,0.003339,0.005775
1.8009,0.003349,0.005792
1.810905,0.003359,0.005809
1.82091,0.003368,0.005826
1.830915,0.003378,0.005843
1.84092,0.003387,0.005859
1.850925,0.003397,0.005875
1.86093,0.003406,0.005891
1.870935,0.003415,0.005907
1.88094,0.003424,0.005922
1.890945,0.003432,0.005937
1.90095,0.003441,0.005952
1.910955,0.003449,0.005967
1.92096,0.003458,0.005981
1.930965,0.003466,0.005995
1.94097,0.003474,0.006009
1.950975,0.003482,0.006023
1.96098,0.00349,0.006036
1.970985,0.003497,0.00605
1.98099,0.003505,0.006063
1.990995,0.003512,0.006075
2.001001,0.00352,0.006088
2.011006,0.003527,0.0061
2.021011,0.003534,0.006112
2.031016,0.003541,0.006124
2.041021,0.003547,0.006136
2.051026,0.003554,0.006147
2.061031,0.00356,0.006158
2.071036,0.003566,0.006169
2.081041,0.003573,0.00618
2.091046,0.003579,0.00619
2.101051,0.003584,0.0062
2.111056,0.00359,0.00621
2.121061,0.003596,0.006219
2.131066,0.003601,0.006229
2.141071,0.003606,0.006238
2.151076,0.003611,0.006247
2.161081,0.003616,0.006255
2.171086,0.003621,0.006264
2.181091,0.003626,0.006272
2.191096,0.003631,0.00628
2.201101,0.003635,0.006287
2.211106,0.003639,0.006295
2.221111,0.003643,0.006302
2.231116,0.003647,0.006309
2.241121,0.003651,0.006316
2.251126,0.003655,0.006322
2.261131,0.003658,0.006328
2.271136,0.003662,0.006334
2.281141,0.003665,0.00634
2.291146,0.003668,0.006345
2.301151,0.003671,0.00635
2.311156,0.003674,0.006355
2.321161,0.003677,0.00636
2.331166,0.003679,0.006364
2.341171,0.003682,0.006368
2.351176,0.003684,0.006372
2.361181,0.003686,0.006376
2.371186,0.003688,0.006379
2.381191,0.00369,0.006382
2.391196,0.003691,0.006385
2.401201,0.003693,0.006388
2.411206,0.003694,0.00639
2.421211,0.003695,0.006392
2.431216,0.003697,0.006394
2.441221,0.003697,0.006396
2.451226,0.003698,0.006397
2.461231,0.003699,0.006398
2.471236,0.003699,0.006399
2.481241,0.0037,0.0064
2.491246,0.0037,0.0064
2.501251,0.0037,0.0064
2.511256,0.0037,0.0064
2.521261,0.0037,0.006399
2.531266,0.003699,0.006399
2.541271,0.003699,0.006398
2.551276,0.003698,0.006397
2.561281,0.003697,0.006395
2.571286,0.003696,0.006394
2.581291,0.003695,0.006392
2.591296,0.003694,0.006389
2.601301,0.003693,0.006387
2.611306,0.003691,0.006384
2.621311,0.003689,0.006381
2.631316,0.003687,0.006378
2.641321,0.003685,0.006375
2.651326,0.003683,0.006371
2.661331,0.003681,0.006367
2.671336,0.003679,0.006363
2.681341,0.003676,0.006359
2.691346,0.003673,0.006354
2.701351,0.00367,0.006349
2.711356,0.003667,0.006344
2.721361,0.003664,0.006338
2.731366,0.003661,0.006332
2.741371,0.003658,0.006327
2.751376,0.003654,0.00632
2.761381,0.00365,0.006314
2.771386,0.003646,0.006307
2.781391,0.003642,0.0063
2.791396,0.003638,0.006293
2.801401,0.003634,0.006286
2.811406,0.003629,0.006278
2.821411,0.003625,0.00627
2.831416,0.00362,0.006262
2.841421,0.003615,0.006253
2.851426,0.00361,0.006245
2.861431,0.003605,0.006236
2.871436,0.0036,0.006226
2.881441,0.003594,0.006217
2.891446,0.003589,0.006207
2.901451,0.003583,0.006197
2.911456,0.003577,0.006187
2.921461,0.003571,0.006177
2.931466,0.003565,0.006166
2.941471,0.003559,0.006155
2.951476,0.003552,0.006144
2.961481,0.003546,0.006133
2.971486,0.003539,0.006121
2.981491,0.003532,0.006109
2.991496,0.003525,0.006097
3.001501,0.003518,0.006085
3.011506,0.003511,0.006072
3.021511,0.003503,0.006059
3.031516,0.003496,0.006046
3.041521,0.003488,0.006033
3.051526,0.00348,0.00602
3.061531,0.003472,0.006006
3.071536,0.003464,0.005992
3.081541,0.003456,0.005977
3.091546,0.003447,0.005963
3.101551,0.003439,0.005948
3.111556,0.00343,0.005933
3.121561,0.003421,0.005918
3.131566,0.003412,0.005903
3.141571,0.003403,0.005887
3.151576,0.003394,0.005871
3.161581,0.003385,0.005855
3.171586,0.003375,0.005839
3.181591,0.003366,0.005822
3.191596,0.003356,0.005805
3.201601,0.003346,0.005788
3.211606,0.003336,0.005771
3.221611,0.003326,0.005753
3.231616,0.003316,0.005736
3.241621,0.003306,0.005718
3.251626,0.003295,0.005699
3.261631,0.003284,0.005681
3.271636,0.003274,0.005662
3.281641,0.003263,0.005644
3.291646,0.003252,0.005624
3.301651,0.00324,0.005605
3.311656,0.003229,0.005586
3.321661,0.003218,0.005566
3.331666,0.003206,0.005546
3.341671,0.003195,0.005526
3.351676,0.003183,0.005505
3.361681,0.003171,0.005485
3.371686,0.003159,0.005464
3.381691,0.003147,0.005443
3.391696,0.003134,0.005422
3.401701,0.003122,0.0054
3.411706,0.003109,0.005378
3.421711,0.003097,0.005356
3.431716,0.003084,0.005334
3.441721,0.003071,0.005312
3.451726,0.003058,0.005289
3.461731,0.003045,0.005267
3.471736,0.003032,0.005244
3.481741,0.003018,0.005221
3.491746,0.003005,0.005197
3.501751,0.002991,0.005174
3.511756,0.002977,0.00515
3.521761,0.002963,0.005126
3.531766,0.002949,0.005102
3.541771,0.002935,0.005077
3.551776,0.002921,0.005053
3.561781,0.002907,0.005028
3.571786,0.002892,0.005003
3.581791,0.002878,0.004978
3.591796,0.002863,0.004952
3.601801,0.002848,0.004927
3.611806,0.002833,0.004901
3.621811,0.002818,0.004875
3.631816,0.002803,0.004849
3.641821,0.002788,0.004822
3.651826,0.002773,0.004796
3.661831,0.002757,0.004769
3.671836,0.002742,0.004742
3.681841,0.002726,0.004715
3.691846,0.00271,0.004688
3.701851,0.002694,0.00466
3.711856,0.002678,0.004633
3.721861,0.002662,0.004605
3.731866,0.002646,0.004577
3.741871,0.00263,0.004549
3.751876,0.002613,0.00452
3.761881,0.002597,0.004492
3.771886,0.00258,0.004463
3.781891,0.002563,0.004434
3.791896,0.002547,0.004405
3.801901,0.00253,0.004376
3.811906,0.002513,0.004346
3.821911,0.002495,0.004316
3.831916,0.002478,0.004287
3.841921,0.002461,0.004257
3.851926,0.002443,0.004227
3.861931,0.002426,0.004196
3.871936,0.002408,0.004166
3.881941,0.002391,0.004135
3.891946,0.002373,0.004104
3.901951,0.002355,0.004073
3.911956,0.002337,0.004042
3.921961,0.002319,0.004011
3.931966,0.002301,0.00398
3.941971,0.002282,0.003948
3.951976,0.002264,0.003916
3.961981,0.002246,0.003884
3.971986,0.002227,0.003852
3.981991,0.002209,0.00382
3.991996,0.00219,0.003788
4.002001,0.002171,0.003755
4.012006,0.002152,0.003723
4.022011,0.002133,0.00369
4.032016,0.002114,0.003657
4.042021,0.002095,0.003624
4.052026,0.002076,0.003591
4.062031,0.002057,0.003557
4.072036,0.002037,0.003524
4.082041,0.002018,0.00349
4.092046,0.001998,0.003456
4.102051,0.001979,0.003422
4.112056,0.001959,0.003388
4.122061,0.001939,0.003354
4.132066,0.001919,0.00332
4.142071,0.001899,0.003285
4.152076,0.001879,0.003251
4.162081,0.001859,0.003216
4.172086,0.001839,0.003181
4.182091,0.001819,0.003146
4.192096,0.001799,0.003111
4.202101,0.001778,0.003076
4.212106,0.001758,0.00304
4.222111,0.001737,0.003005
4.232116,0.001717,0.002969
4.242121,0.001696,0.002934
4.252126,0.001675,0.002898
4.262131,0.001655,0.002862
4.272136,0.001634,0.002826
4.282141,0.001613,0.00279
4.292146,0.001592,0.002754
4.302151,0.001571,0.002717
4.312156,0.00155,0.002681
4.322161,0.001529,0.002644
4.332166,0.001507,0.002607
4.342171,0.001486,0.002571
4.352176,0.001465,0.002534
4.362181,0.001443,0.002497
4.372186,0.001422,0.00246
4.382191,0.0014,0.002422
4.392196,0.001379,0.002385
4.402201,0.001357,0.002348
4.412206,0.001336,0.00231
4.422211,0.001314,0.002273
4.432216,0.001292,0.002235
4.442221,0.00127,0.002197
4.452226,0.001248,0.002159
4.462231,0.001227,0.002122
4.472236,0.001205,0.002084
4.482241,0.001183,0.002046
4.492246,0.00116,0.002007
4.502251,0.001138,0.001969
4.512256,0.001116,0.001931
4.522261,0.001094,0.001892
4.532266,0.001072,0.001854
4.542271,0.00105,0.001815
4.552276,0.001027,0.001777
4.562281,0.001005,0.001738
4.572286,0.000982,0.001699
4.582291,0.00096,0.00166
4.592296,0.000937,0.001622
4.602301,0.000915,0.001583
4.612306,0.000892,0.001544
4.622311,0.00087,0.001505
4.632316,0.000847,0.001465
4.642321,0.000825,0.001426
4.652326,0.000802,0.001387
4.662331,0.000779,0.001348
4.672336,0.000756,0.001308
4.682341,0.000734,0.001269
4.692346,0.000711,0.001229
4.702351,0.000688,0.00119
4.712356,0.000665,0.00115
4.722361,0.000642,0.001111
4.732366,0.000619,0.001071
4.742371,0.000596,0.001031
4.752376,0.000573,0.000992
4.762381,0.00055,0.000952
4.772386,0.000527,0.000912
4.782391,0.000504,0.000872
4.792396,0.000481,0.000832
4.802401,0.000458,0.000793
4.812406,0.000435,0.000753
4.822411,0.000412,0.000713
4.832416,0.000389,0.000673
4.842421,0.000366,0.000633
4.852426,0.000343,0.000593
4.862431,0.000319,0.000553
4.872436,0.000296,0.000512
4.882441,0.000273,0.000472
4.892446,0.00025,0.000432
4.902451,0.000227,0.000392
4.912456,0.000203,0.000352
4.922461,0.00018,0.000312
4.932466,0.000157,0.000271
4.942471,0.000134,0.000231
4.952476,0.00011,0.000191
4.962481,8.7e-05,0.000151
4.972486,6.4e-05,0.000111
4.982491,4.1e-05,7e-05
4.992496,1.7e-05,3e-05
5.002501,-6e-06,-1e-05
5.012506,-2.9e-05,-5e-05
5.022511,-5.2e-05,-9.1e-05
5.032516,-7.6e-05,-0.000131
5.042521,-9.9e-05,-0.000171
5.052526,-0.000122,-0.000211
5.062531,-0.000145,-0.000251
5.072536,-0.000169,-0.000292
5.082541,-0.000192,-0.000332
5.092546,-0.000215,-0.000372
5.102551,-0.000238,-0.000412
5.112556,-0.000261,-0.000452
5.122561,-0.000285,-0.000492
5.132566,-0.000308,-0.000532
5.142571,-0.000331,-0.000573
5.152576,-0.000354,-0.000613
5.162581,-0.000377,-0.000653
5.172586,-0.0004,-0.000693
5.182591,-0.000424,-0.000733
5.192596,-0.000447,-0.000773
5.202601,-0.00047,-0.000813
5.212606,-0.000493,-0.000852
5.222611,-0.000516,-0.000892
5.232616,-0.000539,-0.000932
5.242621,-0.000562,-0.000972
5.252626,-0.000585,-0.001012
5.262631,-0.000608,-0.001051
5.272636,-0.000631,-0.001091
5.282641,-0.000654,-0.001131
5.292646,-0.000677,-0.00117
5.302651,-0.000699,-0.00121
5.312656,-0.000722,-0.001249
5.322661,-0.000745,-0.001289
5.332666,-0.000768,-0.001328
5.342671,-0.00079,-0.001367
5.352676,-0.000813,-0.001407
5.362681,-0.000836,-0.001446
5.372686,-0.000859,-0.001485
5.382691,-0.000881,-0.001524
5.392696,-0.000904,-0.001563
5.402701,-0.000926,-0.001602
5.412706,-0.000949,-0.001641
5.422711,-0.000971,-0.00168
5.432716,-0.000994,-0.001719
5.442721,-0.001016,-0.001757
5.452726,-0.001038,-0.001796
5.462731,-0.001061,-0.001835
5.472736,-0.001083,-0.001873
5.482741,-0.001105,-0.001912
5.492746,-0.001127,-0.00195
5.502751,-0.001149,-0.001988
5.512756,-0.001172,-0.002026
5.522761,-0.001194,-0.002065
5.532766,-0.001216,-0.002103
5.542771,-0.001238,-0.002141
5.552776,-0.001259,-0.002178
5.562781,-0.001281,-0.002216
5.572786,-0.001303,-0.002254
5.582791,-0.001325,-0.002292
5.592796,-0.001346,-0.002329
5.602801,-0.001368,-0.002366
5.612806,-0.00139,-0.002404
5.622811,-0.001411,-0.002441
5.632816,-0.001433,-0.002478
5.642821,-0.001454,-0.002515
5.652826,-0.001475,-0.002552
5.662831,-0.001497,-0.002589
5.672836,-0.001518,-0.002626
5.682841,-0.001539,-0.002662
5.692846,-0.00156,-0.002699
5.702851,-0.001581,-0.002735
5.712856,-0.001602,-0.002772
5.722861,-0.001623,-0.002808
5.732866,-0.001644,-0.002844
5.742871,-0.001665,-0.00288
5.752876,-0.001686,-0.002916
5.762881,-0.001706,-0.002952
5.772886,-0.001727,-0.002987
5.782891,-0.001748,-0.003023
5.792896,-0.001768,-0.003058
5.802901,-0.001788,-0.003093
5.812906,-0.001809,-0.003129
5.822911,-0.001829,-0.003164
5.832916,-0.001849,-0.003199
5.842921,-0.001869,-0.003233
5.852926,-0.001889,-0.003268
5.862931,-0.001909,-0.003303
5.872936,-0.001929,-0.003337
5.882941,-0.001949,-0.003371
5.892946,-0.001969,-0.003405
5.902951,-0.001988,-0.003439
5.912956,-0.002008,-0.003473
5.922961,-0.002027,-0.003507
5.932966,-0.002047,-0.00354
5.942971,-0.002066,-0.003574
5.952976,-0.002085,-0.003607
5.962981,-0.002105,-0.00364
5.972986,-0.002124,-0.003673
5.982991,-0.002143,-0.003706
5.992996,-0.002162,-0.003739
6.003002,-0.00218,-0.003772
6.013007,-0.002199,-0.003804
6.023012,-0.002218,-0.003836
6.033017,-0.002236,-0.003868
6.043022,-0.002255,-0.0039
6.053027,-0.002273,-0.003932
6.063032,-0.002292,-0.003964
6.073037,-0.00231,-0.003995
6.083042,-0.002328,-0.004027
6.093047,-0.002346,-0.004058
6.103052,-0.002364,-0.004089
6.113057,-0.002382,-0.00412
6.123062,-0.0024,-0.004151
6.133067,-0.002417,-0.004181
6.143072,-0.002435,-0.004211
6.153077,-0.002452,-0.004242
6.163082,-0.00247,-0.004272
6.173087,-0.002487,-0.004302
6.183092,-0.002504,-0.004331
6.193097,-0.002521,-0.004361
6.203102,-0.002538,-0.00439
6.213107,-0.002555,-0.004419
6.223112,-0.002572,-0.004448
6.233117,-0.002588,-0.004477
6.243122,-0.002605,-0.004506
6.253127,-0.002621,-0.004534
6.263132,-0.002638,-0.004563
6.273137,-0.002654,-0.004591
6.283142,-0.00267,-0.004619
6.293147,-0.002686,-0.004646
6.303152,-0.002702,-0.004674
6.313157,-0.002718,-0.004701
6.323162,-0.002734,-0.004729
6.333167,-0.002749,-0.004756
6.343172,-0.002765,-0.004783
6.353177,-0.00278,-0.004809
6.363182,-0.002796,-0.004836
6.373187,-0.002811,-0.004862
6.383192,-0.002826,-0.004888
6.393197,-0.002841,-0.004914
6.403202,-0.002856,-0.004939
6.413207,-0.00287,-0.004965
6.423212,-0.002885,-0.00499
6.433217,-0.002899,-0.005015
6.443222,-0.002914,-0.00504
6.453227,-0.002928,-0.005065
6.463232,-0.002942,-0.005089
6.473237,-0.002956,-0.005114
6.483242,-0.00297,-0.005138
6.493247,-0.002984,-0.005162
6.503252,-0.002998,-0.005185
6.513257,-0.003011,-0.005209
6.523262,-0.003025,-0.005232
6.533267,-0.003038,-0.005255
6.543272,-0.003051,-0.005278
6.553277,-0.003064,-0.005301
6.563282,-0.003077,-0.005323
6.573287,-0.00309,-0.005345
6.583292,-0.003103,-0.005367
6.593297,-0.003116,-0.005389
6.603302,-0.003128,-0.005411
6.613307,-0.00314,-0.005432
6.623312,-0.003153,-0.005453
6.633317,-0.003165,-0.005474
6.643322,-0.003177,-0.005495
6.653327,-0.003189,-0.005516
6.663332,-0.0032,-0.005536
6.673337,-0.003212,-0.005556
6.683342,-0.003224,-0.005576
6.693347,-0.003235,-0.005595
6.703352,-0.003246,-0.005615
6.713357,-0.003257,-0.005634
6.723362,-0.003268,-0.005653
6.733367,-0.003279,-0.005672
6.743372,-0.00329,-0.00569
6.753377,-0.0033,-0.005709
6.763382,-0.003311,-0.005727
6.773387,-0.003321,-0.005745
6.783392,-0.003331,-0.005762
6.793397,-0.003341,-0.00578
6.803402,-0.003351,-0.005797
6.813407,-0.003361,-0.005814
6.823412,-0.003371,-0.00583
6.833417,-0.00338,-0.005847
6.843422,-0.00339,-0.005863
6.853427,-0.003399,-0.005879
6.863432,-0.003408,-0.005895
6.873437,-0.003417,-0.00591
6.883442,-0.003426,-0.005926
6.893447,-0.003435,-0.005941
6.903452,-0.003443,-0.005956
6.913457,-0.003452,-0.00597
6.923462,-0.00346,-0.005985
6.933467,-0.003468,-0.005999
6.943472,-0.003476,-0.006013
6.953477,-0.003484,-0.006026
6.963482,-0.003492,-0.00604
6.973487,-0.003499,-0.006053
6.983492,-0.003507,-0.006066
6.993497,-0.003514,-0.006079
7.003502,-0.003521,-0.006091
7.013507,-0.003528,-0.006103
7.023512,-0.003535,-0.006115
7.033517,-0.003542,-0.006127
7.043522,-0.003549,-0.006139
7.053527,-0.003555,-0.00615
7.063532,-0.003562,-0.006161
7.073537,-0.003568,-0.006172
7.083542,-0.003574,-0.006182
7.093547,-0.00358,-0.006192
7.103552,-0.003586,-0.006202
7.113557,-0.003591,-0.006212
7.123562,-0.003597,-0.006222
7.133567,-0.003602,-0.006231
7.143572,-0.003608,-0.00624
7.153577,-0.003613,-0.006249
7.163582,-0.003618,-0.006258
7.173587,-0.003622,-0.006266
7.183592,-0.003627,-0.006274
7.193597,-0.003632,-0.006282
7.203602,-0.003636,-0.006289
7.213607,-0.00364,-0.006297
7.223612,-0.003644,-0.006304
7.233617,-0.003648,-0.006311
7.243622,-0.003652,-0.006317
7.253627,-0.003656,-0.006323
7.263632,-0.003659,-0.00633
7.273637,-0.003663,-0.006335
7.283642,-0.003666,-0.006341
7.293647,-0.003669,-0.006346
7.303652,-0.003672,-0.006351
7.313657,-0.003675,-0.006356
7.323662,-0.003677,-0.006361
7.333667,-0.00368,-0.006365
7.343672,-0.003682,-0.006369
7.353677,-0.003684,-0.006373
7.363682,-0.003686,-0.006377
7.373687,-0.003688,-0.00638
7.383692,-0.00369,-0.006383
7.393697,-0.003692,-0.006386
7.403702,-0.003693,-0.006388
7.413707,-0.003695,-0.006391
7.423712,-0.003696,-0.006393
7.433717,-0.003697,-0.006394
7.443722,-0.003698,-0.006396
7.453727,-0.003698,-0.006397
7.463732,-0.003699,-0.006398
7.473737,-0.003699,-0.006399
7.483742,-0.0037,-0.0064
7.493747,-0.0037,-0.0064
7.503752,-0.0037,-0.0064
7.513757,-0.0037,-0.0064
7.523762,-0.0037,-0.006399
7.533767,-0.003699,-0.006399
7.543772,-0.003699,-0.006398
7.553777,-0.003698,-0.006396
7.563782,-0.003697,-0.006395
7.573787,-0.003696,-0.006393
7.583792,-0.003695,-0.006391
7.593797,-0.003694,-0.006389
7.603802,-0.003692,-0.006386
7.613807,-0.003691,-0.006384
7.623812,-0.003689,-0.006381
7.633817,-0.003687,-0.006377
7.643822,-0.003685,-0.006374
7.653827,-0.003683,-0.00637
7.663832,-0.00368,-0.006366
7.673837,-0.003678,-0.006362
7.683842,-0.003675,-0.006357
7.693847,-0.003673,-0.006353
7.703852,-0.00367,-0.006348
7.713857,-0.003667,-0.006342
7.723862,-0.003663,-0.006337
7.733867,-0.00366,-0.006331
7.743872,-0.003657,-0.006325
7.753877,-0.003653,-0.006319
7.763882,-0.003649,-0.006312
7.773887,-0.003645,-0.006305
7.783892,-0.003641,-0.006298
7.793897,-0.003637,-0.006291
7.803902,-0.003633,-0.006284
7.813907,-0.003628,-0.006276
7.823912,-0.003624,-0.006268
7.833917,-0.003619,-0.00626
7.843922,-0.003614,-0.006251
7.853927,-0.003609,-0.006242
7.863932,-0.003604,-0.006233
7.873937,-0.003598,-0.006224
7.883942,-0.003593,-0.006215
7.893947,-0.003587,-0.006205
7.903952,-0.003581,-0.006195
7.913957,-0.003576,-0.006185
7.923962,-0.003569,-0.006174
7.933967,-0.003563,-0.006164
7.943972,-0.003557,-0.006153
7.953977,-0.00355,-0.006141
7.963982,-0.003544,-0.00613
7.973987,-0.003537,-0.006118
7.983992,-0.00353,-0.006106
7.993997,-0.003523,-0.006094
8.004002,-0.003516,-0.006082
8.014007,-0.003509,-0.006069
8.024012,-0.003501,-0.006056
8.034017,-0.003494,-0.006043
8.044022,-0.003486,-0.00603
8.054027,-0.003478,-0.006016
8.064032,-0.00347,-0.006002
8.074037,-0.003462,-0.005988
8.084042,-0.003454,-0.005974
8.094047,-0.003445,-0.005959
8.104052,-0.003437,-0.005945
8.114057,-0.003428,-0.00593
8.124062,-0.003419,-0.005914
8.134067,-0.00341,-0.005899
8.144072,-0.003401,-0.005883
8.154077,-0.003392,-0.005867
8.164082,-0.003383,-0.005851
8.174087,-0.003373,-0.005834
8.184092,-0.003363,-0.005818
8.194097,-0.003354,-0.005801
8.204102,-0.003344,-0.005784
8.214107,-0.003334,-0.005767
8.224112,-0.003324,-0.005749
8.234117,-0.003313,-0.005731
8.244122,-0.003303,-0.005713
8.254127,-0.003292,-0.005695
8.264132,-0.003282,-0.005676
8.274137,-0.003271,-0.005658
8.284142,-0.00326,-0.005639
8.294147,-0.003249,-0.00562
8.304152,-0.003238,-0.0056
8.314157,-0.003226,-0.005581
8.324162,-0.003215,-0.005561
8.334167,-0.003203,-0.005541
8.344172,-0.003192,-0.005521
8.354177,-0.00318,-0.0055
8.364182,-0.003168,-0.00548
8.374187,-0.003156,-0.005459
8.384192,-0.003144,-0.005437
8.394197,-0.003131,-0.005416
8.404202,-0.003119,-0.005395
8.414207,-0.003106,-0.005373
8.424212,-0.003093,-0.005351
8.434217,-0.003081,-0.005329
8.444222,-0.003068,-0.005306
8.454227,-0.003055,-0.005284
8.464232,-0.003041,-0.005261
8.474237,-0.003028,-0.005238
8.484242,-0.003015,-0.005215
8.494247,-0.003001,-0.005191
8.504252,-0.002988,-0.005168
8.514257,-0.002974,-0.005144
8.524262,-0.00296,-0.00512
8.534267,-0.002946,-0.005096
8.544272,-0.002932,-0.005071
8.554277,-0.002917,-0.005046
8.564282,-0.002903,-0.005022
8.574287,-0.002889,-0.004997
8.584292,-0.002874,-0.004971
8.594297,-0.002859,-0.004946
8.604302,-0.002845,-0.00492
8.614307,-0.00283,-0.004894
8.624312,-0.002815,-0.004868
8.634317,-0.002799,-0.004842
8.644322,-0.002784,-0.004816
8.654327,-0.002769,-0.004789
8.664332,-0.002753,-0.004762
8.674337,-0.002738,-0.004735
8.684342,-0.002722,-0.004708
8.694347,-0.002706,-0.004681
8.704352,-0.00269,-0.004653
8.714357,-0.002674,-0.004626
8.724362,-0.002658,-0.004598
8.734367,-0.002642,-0.00457
8.744372,-0.002626,-0.004541
8.754377,-0.002609,-0.004513
8.764382,-0.002593,-0.004484
8.774387,-0.002576,-0.004456
8.784392,-0.002559,-0.004427
8.794397,-0.002542,-0.004397
8.804402,-0.002525,-0.004368
8.814407,-0.002508,-0.004339
8.824412,-0.002491,-0.004309
8.834417,-0.002474,-0.004279
8.844422,-0.002457,-0.004249
8.854427,-0.002439,-0.004219
8.864432,-0.002422,-0.004189
8.874437,-0.002404,-0.004158
8.884442,-0.002386,-0.004128
8.894447,-0.002368,-0.004097
8.904452,-0.00235,-0.004066
8.914457,-0.002332,-0.004035
8.924462,-0.002314,-0.004003
8.934467,-0.002296,-0.003972
8.944472,-0.002278,-0.00394
8.954477,-0.00226,-0.003908
8.964482,-0.002241,-0.003876
8.974487,-0.002223,-0.003844
8.984492,-0.002204,-0.003812
8.994497,-0.002185,-0.00378
9.004502,-0.002166,-0.003747
9.014507,-0.002147,-0.003714
9.024512,-0.002128,-0.003682
9.034517,-0.002109,-0.003649
9.044522,-0.00209,-0.003616
9.054527,-0.002071,-0.003582
9.064532,-0.002052,-0.003549
9.074537,-0.002032,-0.003515
9.084542,-0.002013,-0.003482
9.094547,-0.001993,-0.003448
9.104552,-0.001974,-0.003414
9.114557,-0.001954,-0.00338
9.124562,-0.001934,-0.003345
9.134567,-0.001914,-0.003311
9.144572,-0.001894,-0.003277
9.154577,-0.001874,-0.003242
9.164582,-0.001854,-0.003207
9.174587,-0.001834,-0.003172
9.184592,-0.001814,-0.003137
9.194597,-0.001793,-0.003102
9.204602,-0.001773,-0.003067
9.214607,-0.001753,-0.003032
9.224612,-0.001732,-0.002996
9.234617,-0.001712,-0.002961
9.244622,-0.001691,-0.002925
9.254627,-0.00167,-0.002889
9.264632,-0.001649,-0.002853
9.274637,-0.001629,-0.002817
9.284642,-0.001608,-0.002781
9.294647,-0.001587,-0.002744
9.304652,-0.001566,-0.002708
9.314657,-0.001544,-0.002672
9.324662,-0.001523,-0.002635
9.334667,-0.001502,-0.002598
9.344672,-0.001481,-0.002561
9.354677,-0.001459,-0.002524
9.364682,-0.001438,-0.002487
9.374687,-0.001417,-0.00245
9.384692,-0.001395,-0.002413
9.394697,-0.001374,-0.002376
9.404702,-0.001352,-0.002338
9.414707,-0.00133,-0.002301
9.424712,-0.001308,-0.002263
9.434717,-0.001287,-0.002226
9.444722,-0.001265,-0.002188
9.454727,-0.001243,-0.00215
9.464732,-0.001221,-0.002112
9.474737,-0.001199,-0.002074
9.484742,-0.001177,-0.002036
9.494747,-0.001155,-0.001998
9.504752,-0.001133,-0.00196
9.514757,-0.001111,-0.001921
9.524762,-0.001088,-0.001883
9.534767,-0.001066,-0.001844
9.544772,-0.001044,-0.001806
9.554777,-0.001022,-0.001767
9.564782,-0.000999,-0.001728
9.574787,-0.000977,-0.00169
9.584792,-0.000954,-0.001651
9.594797,-0.000932,-0.001612
9.604802,-0.000909,-0.001573
9.614807,-0.000887,-0.001534
9.624812,-0.000864,-0.001495
9.634817,-0.000842,-0.001456
9.644822,-0.000819,-0.001416
9.654827,-0.000796,-0.001377
9.664832,-0.000773,-0.001338
9.674837,-0.000751,-0.001298
9.684842,-0.000728,-0.001259
9.694847,-0.000705,-0.00122
9.704852,-0.000682,-0.00118
9.714857,-0.000659,-0.001141
9.724862,-0.000636,-0.001101
9.734867,-0.000614,-0.001061
9.744872,-0.000591,-0.001022
9.754877,-0.000568,-0.000982
9.764882,-0.000545,-0.000942
9.774887,-0.000522,-0.000902
9.784892,-0.000499,-0.000862
9.794897,-0.000475,-0.000822
9.804902,-0.000452,-0.000783
9.814907,-0.000429,-0.000743
9.824912,-0.000406,-0.000703
9.834917,-0.000383,-0.000663
9.844922,-0.00036,-0.000623
9.854927,-0.000337,-0.000583
9.864932,-0.000314,-0.000542
9.874937,-0.00029,-0.000502
9.884942,-0.000267,-0.000462
9.894947,-0.000244,-0.000422
9.904952,-0.000221,-0.000382
9.914957,-0.000198,-0.000342
9.924962,-0.000174,-0.000302
9.934967,-0.000151,-0.000261
9.944972,-0.000128,-0.000221
9.954977,-0.000105,-0.000181
9.964982,-8.1e-05,-0.000141
9.974987,-5.8e-05,-0.000101
9.984992,-3.5e-05,-6e-05
9.994997,-1.2e-05,-2e-05
10.005003,1.2e-05,2e-05
10.015008,3.5e-05,6e-05
10.025013,5.8e-05,0.000101
10.035018,8.1e-05,0.000141
10.045023,0.000105,0.000181
10.055028,0.000128,0.000221
10.065033,0.000151,0.000261
10.075038,0.000174,0.000302
10.085043,0.000198,0.000342
10.095048,0.000221,0.000382
10.105053,0.000244,0.000422
10.115058,0.000267,0.000462
10.125063,0.00029,0.000502
10.135068,0.000314,0.000542
10.145073,0.000337,0.000583
10.155078,0.00036,0.000623
10.165083,0.000383,0.000663
10.175088,0.000406,0.000703
10.185093,0.000429,0.000743
10.195098,0.000452,0.000783
10.205103,0.000475,0.000822
10.215108,0.000499,0.000862
10.225113,0.000522,0.000902
10.235118,0.000545,0.000942
10.245123,0.000568,0.000982
10.255128,0.000591,0.001022
10.265133,0.000614,0.001061
10.275138,0.000636,0.001101
10.285143,0.000659,0.001141
10.295148,0.000682,0.00118
10.305153,0.000705,0.00122
10.315158,0.000728,0.001259
10.325163,0.000751,0.001298
10.335168,0.000773,0.001338
10.345173,0.000796,0.001377
10.355178,0.000819,0.001416
10.365183,0.000842,0.001456
10.375188,0.000864,0.001495
10.385193,0.000887,0.001534
10.395198,0.000909,0.001573
10.405203,0.000932,0.001612
10.415208,0.000954,0.001651
10.425213,0.000977,0.00169
10.435218,0.000999,0.001728
10.445223,0.001022,0.001767
10.455228,0.001044,0.001806
10.465233,0.001066,0.001844
10.475238,0.001088,0.001883
10.485243,0.001111,0.001921
10.495248,0.001133,0.00196
10.505253,0.001155,0.001998
10.515258,0.001177,0.002036
10.525263,0.001199,0.002074
10.535268,0.001221,0.002112
10.545273,0.001243,0.00215
10.555278,0.001265,0.002188
10.565283,0.001287,0.002226
10.575288,0.001308,0.002263
10.585293,0.00133,0.002301
10.595298,0.001352,0.002338
10.605303,0.001374,0.002376
10.615308,0.001395,0.002413
10.625313,0.001417,0.00245
10.635318,0.001438,0.002487
10.645323,0.001459,0.002524
10.655328,0.001481,0.002561
10.665333,0.001502,0.002598
10.675338,0.001523,0.002635
10.685343,0.001544,0.002672
10.695348,0.001566,0.002708
10.705353,0.001587,0.002744
10.715358,0.001608,0.002781
10.725363,0.001629,0.002817
10.735368,0.001649,0.002853
10.745373,0.00167,0.002889
10.755378,0.001691,0.002925
10.765383,0.001712,0.002961
10.775388,0.001732,0.002996
10.785393,0.001753,0.003032
10.795398,0.001773,0.003067
10.805403,0.001793,0.003102
10.815408,0.001814,0.003137
10.825413,0.001834,0.003172
10.835418,0.001854,0.003207
10.845423,0.001874,0.003242
10.855428,0.001894,0.003277
10.865433,0.001914,0.003311
10.875438,0.001934,0.003345
10.885443,0.001954,0.00338
10.895448,0.001974,0.003414
10.905453,0.001993,0.003448
10.915458,0.002013,0.003482
10.925463,0.002032,0.003515
10.935468,0.002052,0.003549
10.945473,0.002071,0.003582
10.955478,0.00209,0.003616
10.965483,0.002109,0.003649
10.975488,0.002128,0.003682
10.985493,0.002147,0.003714
10.995498,0.002166,0.003747
11.005503,0.002185,0.00378
11.015508,0.002204,0.003812
11.025513,0.002223,0.003844
11.035518,0.002241,0.003876
11.045523,0.00226,0.003908
11.055528,0.002278,0.00394
11.065533,0.002296,0.003972
11.075538,0.002314,0.004003
11.085543,0.002332,0.004035
11.095548,0.00235,0.004066
11.105553,0.002368,0.004097
11.115558,0.002386,0.004128
11.125563,0.002404,0.004158
11.135568,0.002422,0.004189
11.145573,0.002439,0.004219
11.155578,0.002457,0.004249
11.165583,0.002474,0.004279
11.175588,0.002491,0.004309
11.185593,0.002508,0.004339
11.195598,0.002525,0.004368
11.205603,0.002542,0.004397
11.215608,0.002559,0.004427
11.225613,0.002576,0.004456
11.235618,0.002593,0.004484
11.245623,0.002609,0.004513
11.255628,0.002626,0.004541
11.265633,0.002642,0.00457
11.275638,0.002658,0.004598
11.285643,0.002674,0.004626
11.295648,0.00269,0.004653
11.305653,0.002706,0.004681
11.315658,0.002722,0.004708
11.325663,0.002738,0.004735
11.335668,0.002753,0.004762
11.345673,0.002769,0.004789
11.355678,0.002784,0.004816
11.365683,0.002799,0.004842
11.375688,0.002815,0.004868
11.385693,0.00283,0.004894
11.395698,0.002845,0.00492
11.405703,0.002859,0.004946
11.415708,0.002874,0.004971
11.425713,0.002889,0.004997
11.435718,0.002903,0.005022
11.445723,0.002917,0.005046
11.455728,0.002932,0.005071
11.465733,0.002946,0.005096
11.475738,0.00296,0.00512
11.485743,0.002974,0.005144
11.495748,0.002988,0.005168
11.505753,0.003001,0.005191
11.515758,0.003015,0.005215
11.525763,0.003028,0.005238
11.535768,0.003041,0.005261
11.545773,0.003055,0.005284
11.555778,0.003068,0.005306
11.565783,0.003081,0.005329
11.575788,0.003093,0.005351
11.585793,0.003106,0.005373
11.595798,0.003119,0.005395
11.605803,0.003131,0.005416
11.615808,0.003144,0.005437
11.625813,0.003156,0.005459
11.635818,0.003168,0.00548
11.645823,0.00318,0.0055
11.655828,0.003192,0.005521
11.665833,0.003203,0.005541
11.675838,0.003215,0.005561
11.685843,0.003226,0.005581
11.695848,0.003238,0.0056
11.705853,0.003249,0.00562
11.715858,0.00326,0.005639
11.725863,0.003271,0.005658
11.735868,0.003282,0.005676
11.745873,0.003292,0.005695
11.755878,0.003303,0.005713
11.765883,0.003313,0.005731
11.775888,0.003324,0.005749
11.785893,0.003334,0.005767
11.795898,0.003344,0.005784
11.805903,0.003354,0.005801
11.815908,0.003363,0.005818
11.825913,0.003373,0.005834
11.835918,0.003383,0.005851
11.845923,0.003392,0.005867
11.855928,0.003401,0.005883
11.865933,0.00341,0.005899
11.875938,0.003419,0.005914
11.885943,0.003428,0.00593
11.895948,0.003437,0.005945
11.905953,0.003445,0.005959
11.915958,0.003454,0.005974
11.925963,0.003462,0.005988
11.935968,0.00347,0.006002
11.945973,0.003478,0.006016
11.955978,0.003486,0.00603
11.965983,0.003494,0.006043
11.975988,0.003501,0.006056
11.985993,0.003509,0.006069
11.995998,0.003516,0.006082
12.006003,0.003523,0.006094
12.016008,0.00353,0.006106
12.026013,0.003537,0.006118
12.036018,0.003544,0.00613
12.046023,0.00355,0.006141
12.056028,0.003557,0.006153
12.066033,0.003563,0.006164
12.076038,0.003569,0.006174
12.086043,0.003576,0.006185
12.096048,0.003581,0.006195
12.106053,0.003587,0.006205
12.116058,0.003593,0.006215
12.126063,0.003598,0.006224
12.136068,0.003604,0.006233
12.146073,0.003609,0.006242
12.156078,0.003614,0.006251
12.166083,0.003619,0.00626
12.176088,0.003624,0.006268
12.186093,0.003628,0.006276
12.196098,0.003633,0.006284
12.206103,0.003637,0.006291
12.216108,0.003641,0.006298
12.226113,0.003645,0.006305
12.236118,0.003649,0.006312
12.246123,0.003653,0.006319
12.256128,0.003657,0.006325
12.266133,0.00366,0.006331
12.276138,0.003663,0.006337
12.286143,0.003667,0.006342
12.296148,0.00367,0.006348
12.306153,0.003673,0.006353
12.316158,0.003675,0.006357
12.326163,0.003678,0.006362
12.336168,0.00368,0.006366
12.346173,0.003683,0.00637
12.356178,0.003685,0.006374
12.366183,0.003687,0.006377
12.376188,0.003689,0.006381
12.386193,0.003691,0.006384
12.396198,0.003692,0.006386
12.406203,0.003694,0.006389
12.416208,0.003695,0.006391
12.426213,0.003696,0.006393
12.436218,0.003697,0.006395
12.446223,0.003698,0.006396
12.456228,0.003699,0.006398
12.466233,0.003699,0.006399
12.476238,0.0037,0.006399
12.486243,0.0037,0.0064
12.496248,0.0037,0.0064
12.506253,0.0037,0.0064
12.516258,0.0037,0.0064
12.526263,0.003699,0.006399
12.536268,0.003699,0.006398
12.546273,0.003698,0.006397
12.556278,0.003698,0.006396
12.566283,0.003697,0.006394
12.576288,0.003696,0.006393
12.586293,0.003695,0.006391
12.596298,0.003693,0.006388
12.606303,0.003692,0.006386
12.616308,0.00369,0.006383
12.626313,0.003688,0.00638
12.636318,0.003686,0.006377
12.646323,0.003684,0.006373
12.656328,0.003682,0.006369
12.666333,0.00368,0.006365
12.676338,0.003677,0.006361
12.686343,0.003675,0.006356
12.696348,0.003672,0.006351
12.706353,0.003669,0.006346
12.716358,0.003666,0.006341
12.726363,0.003663,0.006335
12.736368,0.003659,0.00633
12.746373,0.003656,0.006323
12.756378,0.003652,0.006317
12.766383,0.003648,0.006311
12.776388,0.003644,0.006304
12.786393,0.00364,0.006297
12.796398,0.003636,0.006289
12.806403,0.003632,0.006282
12.816408,0.003627,0.006274
12.826413,0.003622,0.006266
12.836418,0.003618,0.006258
12.846423,0.003613,0.006249
12.856428,0.003608,0.00624
12.866433,0.003602,0.006231
12.876438,0.003597,0.006222
12.886443,0.003591,0.006212
12.896448,0.003586,0.006202
12.906453,0.00358,0.006192
12.916458,0.003574,0.006182
12.926463,0.003568,0.006172
12.936468,0.003562,0.006161
12.946473,0.003555,0.00615
12.956478,0.003549,0.006139
12.966483,0.003542,0.006127
12.976488,0.003535,0.006115
12.986493,0.003528,0.006103
12.996498,0.003521,0.006091
13.006503,0.003514,0.006079
13.016508,0.003507,0.006066
13.026513,0.003499,0.006053
13.036518,0.003492,0.00604
13.046523,0.003484,0.006026
13.056528,0.003476,0.006013
13.066533,0.003468,0.005999
13.076538,0.00346,0.005985
13.086543,0.003452,0.00597
13.096548,0.003443,0.005956
13.106553,0.003435,0.005941
13.116558,0.003426,0.005926
13.126563,0.003417,0.00591
13.136568,0.003408,0.005895
13.146573,0.003399,0.005879
13.156578,0.00339,0.005863
13.166583,0.00338,0.005847
13.176588,0.003371,0.00583
13.186593,0.003361,0.005814
13.196598,0.003351,0.005797
13.206603,0.003341,0.00578
13.216608,0.003331,0.005762
13.226613,0.003321,0.005745
13.236618,0.003311,0.005727
13.246623,0.0033,0.005709
13.256628,0.00329,0.00569
13.266633,0.003279,0.005672
13.276638,0.003268,0.005653
13.286643,0.003257,0.005634
13.296648,0.003246,0.005615
13.306653,0.003235,0.005595
13.316658,0.003224,0.005576
13.326663,0.003212,0.005556
13.336668,0.0032,0.005536
13.346673,0.003189,0.005516
13.356678,0.003177,0.005495
13.366683,0.003165,0.005474
13.376688,0.003153,0.005453
13.386693,0.00314,0.005432
13.396698,0.003128,0.005411
13.406703,0.003116,0.005389
13.416708,0.003103,0.005367
13.426713,0.00309,0.005345
13.436718,0.003077,0.005323
13.446723,0.003064,0.005301
13.456728,0.003051,0.005278
13.466733,0.003038,0.005255
13.476738,0.003025,0.005232
13.486743,0.003011,0.005209
13.496748,0.002998,0.005185
13.506753,0.002984,0.005162
13.516758,0.00297,0.005138
13.526763,0.002956,0.005114
13.536768,0.002942,0.005089
13.546773,0.002928,0.005065
13.556778,0.002914,0.00504
13.566783,0.002899,0.005015
13.576788,0.002885,0.00499
13.586793,0.00287,0.004965
13.596798,0.002856,0.004939
13.606803,0.002841,0.004914
13.616808,0.002826,0.004888
13.626813,0.002811,0.004862
13.636818,0.002796,0.004836
13.646823,0.00278,0.004809
13.656828,0.002765,0.004783
13.666833,0.002749,0.004756
13.676838,0.002734,0.004729
13.686843,0.002718,0.004701
13.696848,0.002702,0.004674
13.706853,0.002686,0.004646
13.716858,0.00267,0.004619
13.726863,0.002654,0.004591
13.736868,0.002638,0.004563
13.746873,0.002621,0.004534
13.756878,0.002605,0.004506
13.766883,0.002588,0.004477
13.776888,0.002572,0.004448
13.786893,0.002555,0.004419
13.796898,0.002538,0.00439
13.806903,0.002521,0.004361
13.816908,0.002504,0.004331
13.826913,0.002487,0.004302
13.836918,0.00247,0.004272
13.846923,0.002452,0.004242
13.856928,0.002435,0.004211
13.866933,0.002417,0.004181
13.876938,0.0024,0.004151
13.886943,0.002382,0.00412
13.896948,0.002364,0.004089
13.906953,0.002346,0.004058
13.916958,0.002328,0.004027
13.926963,0.00231,0.003995
13.936968,0.002292,0.003964
13.946973,0.002273,0.003932
13.956978,0.002255,0.0039
13.966983,0.002236,0.003868
13.976988,0.002218,0.003836
13.986993,0.002199,0.003804
13.996998,0.00218,0.003772
14.007004,0.002162,0.003739
14.017009,0.002143,0.003706
14.027014,0.002124,0.003673
14.037019,0.002105,0.00364
14.047024,0.002085,0.003607
14.057029,0.002066,0.003574
14.067034,0.002047,0.00354
14.077039,0.002027,0.003507
14.087044,0.002008,0.003473
14.097049,0.001988,0.003439
14.107054,0.001969,0.003405
14.117059,0.001949,0.003371
14.127064,0.001929,0.003337
14.137069,0.001909,0.003303
14.147074,0.001889,0.003268
14.157079,0.001869,0.003233
14.167084,0.001849,0.003199
14.177089,0.001829,0.003164
14.187094,0.001809,0.003129
14.197099,0.001788,0.003093
14.207104,0.001768,0.003058
14.217109,0.001748,0.003023
14.227114,0.001727,0.002987
14.237119,0.001706,0.002952
14.247124,0.001686,0.002916
14.257129,0.001665,0.00288
14.267134,0.001644,0.002844
14.277139,0.001623,0.002808
14.287144,0.001602,0.002772
14.297149,0.001581,0.002735
14.307154,0.00156,0.002699
14.317159,0.001539,0.002662
14.327164,0.001518,0.002626
14.337169,0.001497,0.002589
14.347174,0.001475,0.002552
14.357179,0.001454,0.002515
14.367184,0.001433,0.002478
14.377189,0.001411,0.002441
14.387194,0.00139,0.002404
14.397199,0.001368,0.002366
14.407204,0.001346,0.002329
14.417209,0.001325,0.002292
14.427214,0.001303,0.002254
14.437219,0.001281,0.002216
14.447224,0.001259,0.002178
14.457229,0.001238,0.002141
14.467234,0.001216,0.002103
14.477239,0.001194,0.002065
14.487244,0.001172,0.002026
14.497249,0.001149,0.001988
14.507254,0.001127,0.00195
14.517259,0.001105,0.001912
14.527264,0.001083,0.001873
14.537269,0.001061,0.001835
14.547274,0.001038,0.001796
14.557279,0.001016,0.001757
14.567284,0.000994,0.001719
14.577289,0.000971,0.00168
14.587294,0.000949,0.001641
14.597299,0.000926,0.001602
14.607304,0.000904,0.001563
14.617309,0.000881,0.001524
14.627314,0.000859,0.001485
14.637319,0.000836,0.001446
14.647324,0.000813,0.001407
14.657329,0.00079,0.001367
14.667334,0.000768,0.001328
14.677339,0.000745,0.001289
14.687344,0.000722,0.001249
14.697349,0.000699,0.00121
14.707354,0.000677,0.00117
14.717359,0.000654,0.001131
14.727364,0.000631,0.001091
14.737369,0.000608,0.001051
14.747374,0.000585,0.001012
14.757379,0.000562,0.000972
14.767384,0.000539,0.000932
14.777389,0.000516,0.000892
14.787394,0.000493,0.000852
14.797399,0.00047,0.000813
14.807404,0.000447,0.000773
14.817409,0.000424,0.000733
14.827414,0.0004,0.000693
14.837419,0.000377,0.000653
14.847424,0.000354,0.000613
14.857429,0.000331,0.000573
14.867434,0.000308,0.000532
14.877439,0.000285,0.000492
14.887444,0.000261,0.000452
14.897449,0.000238,0.000412
14.907454,0.000215,0.000372
14.917459,0.000192,0.000332
14.927464,0.000169,0.000292
14.937469,0.000145,0.000251
14.947474,0.000122,0.000211
14.957479,9.9e-05,0.000171
14.967484,7.6e-05,0.000131
14.977489,5.2e-05,9.1e-05
14.987494,2.9e-05,5e-05
14.997499,6e-06,1e-05
15.007504,-1.7e-05,-3e-05
15.017509,-4.1e-05,-7e-05
15.027514,-6.4e-05,-0.000111
15.037519,-8.7e-05,-0.000151
15.047524,-0.00011,-0.000191
15.057529,-0.000134,-0.000231
15.067534,-0.000157,-0.000271
15.077539,-0.00018,-0.000312
15.087544,-0.000203,-0.000352
15.097549,-0.000227,-0.000392
15.107554,-0.00025,-0.000432
15.117559,-0.000273,-0.000472
15.127564,-0.000296,-0.000512
15.137569,-0.000319,-0.000553
15.147574,-0.000343,-0.000593
15.157579,-0.000366,-0.000633
15.167584,-0.000389,-0.000673
15.177589,-0.000412,-0.000713
15.187594,-0.000435,-0.000753
15.197599,-0.000458,-0.000793
15.207604,-0.000481,-0.000832
15.217609,-0.000504,-0.000872
15.227614,-0.000527,-0.000912
15.237619,-0.00055,-0.000952
15.247624,-0.000573,-0.000992
15.257629,-0.000596,-0.001031
15.267634,-0.000619,-0.001071
15.277639,-0.000642,-0.001111
15.287644,-0.000665,-0.00115
15.297649,-0.000688,-0.00119
15.307654,-0.000711,-0.001229
15.317659,-0.000734,-0.001269
15.327664,-0.000756,-0.001308
15.337669,-0.000779,-0.001348
15.347674,-0.000802,-0.001387
15.357679,-0.000825,-0.001426
15.367684,-0.000847,-0.001465
15.377689,-0.00087,-0.001505
15.387694,-0.000892,-0.001544
15.397699,-0.000915,-0.001583
15.407704,-0.000937,-0.001622
15.417709,-0.00096,-0.00166
15.427714,-0.000982,-0.001699
15.437719,-0.001005,-0.001738
15.447724,-0.001027,-0.001777
15.457729,-0.00105,-0.001815
15.467734,-0.001072,-0.001854
15.477739,-0.001094,-0.001892
15.487744,-0.001116,-0.001931
15.497749,-0.001138,-0.001969
15.507754,-0.00116,-0.002007
15.517759,-0.001183,-0.002046
15.527764,-0.001205,-0.002084
15.537769,-0.001227,-0.002122
15.547774,-0.001248,-0.002159
15.557779,-0.00127,-0.002197
15.567784,-0.001292,-0.002235
15.577789,-0.001314,-0.002273
15.587794,-0.001336,-0.00231
15.597799,-0.001357,-0.002348
15.607804,-0.001379,-0.002385
15.617809,-0.0014,-0.002422
15.627814,-0.001422,-0.00246
15.637819,-0.001443,-0.002497
15.647824,-0.001465,-0.002534
15.657829,-0.001486,-0.002571
15.667834,-0.001507,-0.002607
15.677839,-0.001529,-0.002644
15.687844,-0.00155,-0.002681
15.697849,-0.001571,-0.002717
15.707854,-0.001592,-0.002754
15.717859,-0.001613,-0.00279
15.727864,-0.001634,-0.002826
15.737869,-0.001655,-0.002862
15.747874,-0.001675,-0.002898
15.757879,-0.001696,-0.002934
15.767884,-0.001717,-0.002969
15.777889,-0.001737,-0.003005
15.787894,-0.001758,-0.00304
15.797899,-0.001778,-0.003076
15.807904,-0.001799,-0.003111
15.817909,-0.001819,-0.003146
15.827914,-0.001839,-0.003181
15.837919,-0.001859,-0.003216
15.847924,-0.001879,-0.003251
15.857929,-0.001899,-0.003285
15.867934,-0.001919,-0.00332
15.877939,-0.001939,-0.003354
15.887944,-0.001959,-0.003388
15.897949,-0.001979,-0.003422
15.907954,-0.001998,-0.003456
15.917959,-0.002018,-0.00349
15.927964,-0.002037,-0.003524
15.937969,-0.002057,-0.003557
15.947974,-0.002076,-0.003591
15.957979,-0.002095,-0.003624
15.967984,-0.002114,-0.003657
15.977989,-0.002133,-0.00369
15.987994,-0.002152,-0.003723
15.997999,-0.002171,-0.003755
16.008004,-0.00219,-0.003788
16.018009,-0.002209,-0.00382
16.028014,-0.002227,-0.003852
16.038019,-0.002246,-0.003884
16.048024,-0.002264,-0.003916
16.058029,-0.002282,-0.003948
16.068034,-0.002301,-0.00398
16.078039,-0.002319,-0.004011
16.088044,-0.002337,-0.004042
16.098049,-0.002355,-0.004073
16.108054,-0.002373,-0.004104
16.118059,-0.002391,-0.004135
16.128064,-0.002408,-0.004166
16.138069,-0.002426,-0.004196
16.148074,-0.002443,-0.004227
16.158079,-0.002461,-0.004257
16.168084,-0.002478,-0.004287
16.178089,-0.002495,-0.004316
16.188094,-0.002513,-0.004346
16.198099,-0.00253,-0.004376
16.208104,-0.002547,-0.004405
16.218109,-0.002563,-0.004434
16.228114,-0.00258,-0.004463
16.238119,-0.002597,-0.004492
16.248124,-0.002613,-0.00452
16.258129,-0.00263,-0.004549
16.268134,-0.002646,-0.004577
16.278139,-0.002662,-0.004605
16.288144,-0.002678,-0.004633
16.298149,-0.002694,-0.00466
16.308154,-0.00271,-0.004688
16.318159,-0.002726,-0.004715
16.328164,-0.002742,-0.004742
16.338169,-0.002757,-0.004769
16.348174,-0.002773,-0.004796
16.358179,-0.002788,-0.004822
16.368184,-0.002803,-0.004849
16.378189,-0.002818,-0.004875
16.388194,-0.002833,-0.004901
16.398199,-0.002848,-0.004927
16.408204,-0.002863,-0.004952
16.418209,-0.002878,-0.004978
16.428214,-0.002892,-0.005003
16.438219,-0.002907,-0.005028
16.448224,-0.002921,-0.005053
16.458229,-0.002935,-0.005077
16.468234,-0.002949,-0.005102
16.478239,-0.002963,-0.005126
16.488244,-0.002977,-0.00515
16.498249,-0.002991,-0.005174
16.508254,-0.003005,-0.005197
16.518259,-0.003018,-0.005221
16.528264,-0.003032,-0.005244
16.538269,-0.003045,-0.005267
16.548274,-0.003058,-0.005289
16.558279,-0.003071,-0.005312
16.568284,-0.003084,-0.005334
16.578289,-0.003097,-0.005356
16.588294,-0.003109,-0.005378
16.598299,-0.003122,-0.0054
16.608304,-0.003134,-0.005422
16.618309,-0.003147,-0.005443
16.628314,-0.003159,-0.005464
16.638319,-0.003171,-0.005485
16.648324,-0.003183,-0.005505
16.658329,-0.003195,-0.005526
16.668334,-0.003206,-0.005546
16.678339,-0.003218,-0.005566
16.688344,-0.003229,-0.005586
16.698349,-0.00324,-0.005605
16.708354,-0.003252,-0.005624
16.718359,-0.003263,-0.005644
16.728364,-0.003274,-0.005662
16.738369,-0.003284,-0.005681
16.748374,-0.003295,-0.005699
16.758379,-0.003306,-0.005718
16.768384,-0.003316,-0.005736
16.778389,-0.003326,-0.005753
16.788394,-0.003336,-0.005771
16.798399,-0.003346,-0.005788
16.808404,-0.003356,-0.005805
16.818409,-0.003366,-0.005822
16.828414,-0.003375,-0.005839
16.838419,-0.003385,-0.005855
16.848424,-0.003394,-0.005871
16.858429,-0.003403,-0.005887
16.868434,-0.003412,-0.005903
16.878439,-0.003421,-0.005918
16.888444,-0.00343,-0.005933
16.898449,-0.003439,-0.005948
16.908454,-0.003447,-0.005963
16.918459,-0.003456,-0.005977
16.928464,-0.003464,-0.005992
16.938469,-0.003472,-0.006006
16.948474,-0.00348,-0.00602
16.958479,-0.003488,-0.006033
16.968484,-0.003496,-0.006046
16.978489,-0.003503,-0.006059
16.988494,-0.003511,-0.006072
16.998499,-0.003518,-0.006085
17.008504,-0.003525,-0.006097
17.018509,-0.003532,-0.006109
17.028514,-0.003539,-0.006121
17.038519,-0.003546,-0.006133
17.048524,-0.003552,-0.006144
17.058529,-0.003559,-0.006155
17.068534,-0.003565,-0.006166
17.078539,-0.003571,-0.006177
17.088544,-0.003577,-0.006187
17.098549,-0.003583,-0.006197
17.108554,-0.003589,-0.006207
17.118559,-0.003594,-0.006217
17.128564,-0.0036,-0.006226
17.138569,-0.003605,-0.006236
17.148574,-0.00361,-0.006245
17.158579,-0.003615,-0.006253
17.168584,-0.00362,-0.006262
17.178589,-0.003625,-0.00627
17.188594,-0.003629,-0.006278
17.198599,-0.003634,-0.006286
17.208604,-0.003638,-0.006293
17.218609,-0.003642,-0.0063
17.228614,-0.003646,-0.006307
17.238619,-0.00365,-0.006314
17.248624,-0.003654,-0.00632
17.258629,-0.003658,-0.006327
17.268634,-0.003661,-0.006332
17.278639,-0.003664,-0.006338
17.288644,-0.003667,-0.006344
17.298649,-0.00367,-0.006349
17.308654,-0.003673,-0.006354
17.318659,-0.003676,-0.006359
17.328664,-0.003679,-0.006363
17.338669,-0.003681,-0.006367
17.348674,-0.003683,-0.006371
17.358679,-0.003685,-0.006375
17.368684,-0.003687,-0.006378
17.378689,-0.003689,-0.006381
17.388694,-0.003691,-0.006384
17.398699,-0.003693,-0.006387
17.408704,-0.003694,-0.006389
17.418709,-0.003695,-0.006392
17.428714,-0.003696,-0.006394
17.438719,-0.003697,-0.006395
17.448724,-0.003698,-0.006397
17.458729,-0.003699,-0.006398
17.468734,-0.003699,-0.006399
17.478739,-0.0037,-0.006399
17.488744,-0.0037,-0.0064
17.498749,-0.0037,-0.0064
17.508754,-0.0037,-0.0064
17.518759,-0.0037,-0.0064
17.528764,-0.003699,-0.006399
17.538769,-0.003699,-0.006398
17.548774,-0.003698,-0.006397
17.558779,-0.003697,-0.006396
17.568784,-0.003697,-0.006394
17.578789,-0.003695,-0.006392
17.588794,-0.003694,-0.00639
17.598799,-0.003693,-0.006388
17.608804,-0.003691,-0.006385
17.618809,-0.00369,-0.006382
17.628814,-0.003688,-0.006379
17.638819,-0.003686,-0.006376
17.648824,-0.003684,-0.006372
17.658829,-0.003682,-0.006368
17.668834,-0.003679,-0.006364
17.678839,-0.003677,-0.00636
17.688844,-0.003674,-0.006355
17.698849,-0.003671,-0.00635
17.708854,-0.003668,-0.006345
17.718859,-0.003665,-0.00634
17.728864,-0.003662,-0.006334
17.738869,-0.003658,-0.006328
17.748874,-0.003655,-0.006322
17.758879,-0.003651,-0.006316
17.768884,-0.003647,-0.006309
17.778889,-0.003643,-0.006302
17.788894,-0.003639,-0.006295
17.798899,-0.003635,-0.006287
17.808904,-0.003631,-0.00628
17.818909,-0.003626,-0.006272
17.828914,-0.003621,-0.006264
17.838919,-0.003616,-0.006255
17.848924,-0.003611,-0.006247
17.858929,-0.003606,-0.006238
17.868934,-0.003601,-0.006229
17.878939,-0.003596,-0.006219
17.888944,-0.00359,-0.00621
17.898949,-0.003584,-0.0062
17.908954,-0.003579,-0.00619
17.918959,-0.003573,-0.00618
17.928964,-0.003566,-0.006169
17.938969,-0.00356,-0.006158
17.948974,-0.003554,-0.006147
17.958979,-0.003547,-0.006136
17.968984,-0.003541,-0.006124
17.978989,-0.003534,-0.006112
17.988994,-0.003527,-0.0061
17.998999,-0.00352,-0.006088
18.009005,-0.003512,-0.006075
18.01901,-0.003505,-0.006063
18.029015,-0.003497,-0.00605
18.03902,-0.00349,-0.006036
18.049025,-0.003482,-0.006023
18.05903,-0.003474,-0.006009
18.069035,-0.003466,-0.005995
18.07904,-0.003458,-0.005981
18.089045,-0.003449,-0.005967
18.09905,-0.003441,-0.005952
18.109055,-0.003432,-0.005937
18.11906,-0.003424,-0.005922
18.129065,-0.003415,-0.005907
18.13907,-0.003406,-0.005891
18.149075,-0.003397,-0.005875
18.15908,-0.003387,-0.005859
18.169085,-0.003378,-0.005843
18.17909,-0.003368,-0.005826
18.189095,-0.003359,-0.005809
18.1991,-0.003349,-0.005792
18.209105,-0.003339,-0.005775
18.21911,-0.003329,-0.005758
18.229115,-0.003318,-0.00574
18.23912,-0.003308,-0.005722
18.249125,-0.003298,-0.005704
18.25913,-0.003287,-0.005686
18.269135,-0.003276,-0.005667
18.27914,-0.003265,-0.005648
18.289145,-0.003254,-0.005629
18.29915,-0.003243,-0.00561
18.309155,-0.003232,-0.005591
18.31916,-0.003221,-0.005571
18.329165,-0.003209,-0.005551
18.33917,-0.003197,-0.005531
18.349175,-0.003186,-0.00551
18.35918,-0.003174,-0.00549
18.369185,-0.003162,-0.005469
18.37919,-0.00315,-0.005448
18.389195,-0.003137,-0.005427
18.3992,-0.003125,-0.005405
18.409205,-0.003112,-0.005384
18.41921,-0.0031,-0.005362
18.429215,-0.003087,-0.00534
18.43922,-0.003074,-0.005318
18.449225,-0.003061,-0.005295
18.45923,-0.003048,-0.005272
18.469235,-0.003035,-0.005249
18.47924,-0.003021,-0.005226
18.489245,-0.003008,-0.005203
18.49925,-0.002994,-0.005179
18.509255,-0.002981,-0.005156
18.51926,-0.002967,-0.005132
18.529265,-0.002953,-0.005108
18.53927,-0.002939,-0.005083
18.549275,-0.002925,-0.005059
18.55928,-0.00291,-0.005034
18.569285,-0.002896,-0.005009
18.57929,-0.002881,-0.004984
18.589295,-0.002867,-0.004959
18.5993,-0.002852,-0.004933
18.609305,-0.002837,-0.004907
18.61931,-0.002822,-0.004881
18.629315,-0.002807,-0.004855
18.63932,-0.002792,-0.004829
18.649325,-0.002776,-0.004803
18.65933,-0.002761,-0.004776
18.669335,-0.002745,-0.004749
18.67934,-0.00273,-0.004722
18.689345,-0.002714,-0.004695
18.69935,-0.002698,-0.004667
18.709355,-0.002682,-0.00464
18.71936,-0.002666,-0.004612
18.729365,-0.00265,-0.004584
18.73937,-0.002634,-0.004556
18.749375,-0.002617,-0.004527
18.75938,-0.002601,-0.004499
18.769385,-0.002584,-0.00447
18.77939,-0.002568,-0.004441
18.789395,-0.002551,-0.004412
18.7994,-0.002534,-0.004383
18.809405,-0.002517,-0.004353
18.81941,-0.0025,-0.004324
18.829415,-0.002483,-0.004294
18.83942,-0.002465,-0.004264
18.849425,-0.002448,-0.004234
18.85943,-0.00243,-0.004204
18.869435,-0.002413,-0.004173
18.87944,-0.002395,-0.004143
18.889445,-0.002377,-0.004112
18.89945,-0.002359,-0.004081
18.909455,-0.002341,-0.00405
18.91946,-0.002323,-0.004019
18.929465,-0.002305,-0.003988
18.93947,-0.002287,-0.003956
18.949475,-0.002269,-0.003924
18.95948,-0.00225,-0.003892
18.969485,-0.002232,-0.00386
18.97949,-0.002213,-0.003828
18.989495,-0.002195,-0.003796
18.9995,-0.002176,-0.003763
19.009505,-0.002157,-0.003731
19.01951,-0.002138,-0.003698
19.029515,-0.002119,-0.003665
19.03952,-0.0021,-0.003632
19.049525,-0.002081,-0.003599
19.05953,-0.002061,-0.003566
19.069535,-0.002042,-0.003532
19.07954,-0.002023,-0.003498
19.089545,-0.002003,-0.003465
19.09955,-0.001983,-0.003431
19.109555,-0.001964,-0.003397
19.11956,-0.001944,-0.003363
19.129565,-0.001924,-0.003328
19.13957,-0.001904,-0.003294
19.149575,-0.001884,-0.003259
19.15958,-0.001864,-0.003225
19.169585,-0.001844,-0.00319
19.17959,-0.001824,-0.003155
19.189595,-0.001804,-0.00312
19.1996,-0.001783,-0.003085
19.209605,-0.001763,-0.003049
19.21961,-0.001742,-0.003014
19.229615,-0.001722,-0.002978
19.23962,-0.001701,-0.002943
19.249625,-0.001681,-0.002907
19.25963,-0.00166,-0.002871
19.269635,-0.001639,-0.002835
19.27964,-0.001618,-0.002799
19.289645,-0.001597,-0.002763
19.29965,-0.001576,-0.002726
19.309655,-0.001555,-0.00269
19.31966,-0.001534,-0.002653
19.329665,-0.001513,-0.002617
19.33967,-0.001491,-0.00258
19.349675,-0.00147,-0.002543
19.35968,-0.001449,-0.002506
19.369685,-0.001427,-0.002469
19.37969,-0.001406,-0.002432
19.389695,-0.001384,-0.002394
19.3997,-0.001363,-0.002357
19.409705,-0.001341,-0.00232
19.41971,-0.001319,-0.002282
19.429715,-0.001298,-0.002244
19.43972,-0.001276,-0.002207
19.449725,-0.001254,-0.002169
19.45973,-0.001232,-0.002131
19.469735,-0.00121,-0.002093
19.47974,-0.001188,-0.002055
19.489745,-0.001166,-0.002017
19.49975,-0.001144,-0.001979
19.509755,-0.001122,-0.00194
19.51976,-0.0011,-0.001902
19.529765,-0.001077,-0.001864
19.53977,-0.001055,-0.001825
19.549775,-0.001033,-0.001786
19.55978,-0.00101,-0.001748
19.569785,-0.000988,-0.001709
19.57979,-0.000966,-0.00167
19.589795,-0.000943,-0.001631
19.5998,-0.000921,-0.001592
19.609805,-0.000898,-0.001553
19.61981,-0.000875,-0.001514
19.629815,-0.000853,-0.001475
19.63982,-0.00083,-0.001436
19.649825,-0.000808,-0.001397
19.65983,-0.000785,-0.001358
19.669835,-0.000762,-0.001318
19.67984,-0.000739,-0.001279
19.689845,-0.000716,-0.001239
19.69985,-0.000694,-0.0012
19.709855,-0.000671,-0.00116
19.71986,-0.000648,-0.001121
19.729865,-0.000625,-0.001081
19.73987,-0.000602,-0.001041
19.749875,-0.000579,-0.001002
19.75988,-0.000556,-0.000962
19.769885,-0.000533,-0.000922
19.77989,-0.00051,-0.000882
19.789895,-0.000487,-0.000842
19.7999,-0.000464,-0.000803
19.809905,-0.000441,-0.000763
19.81991,-0.000418,-0.000723
19.829915,-0.000395,-0.000683
19.83992,-0.000372,-0.000643
19.849925,-0.000348,-0.000603
19.85993,-0.000325,-0.000563
19.869935,-0.000302,-0.000522
19.87994,-0.000279,-0.000482
19.889945,-0.000256,-0.000442
19.89995,-0.000232,-0.000402
19.909955,-0.000209,-0.000362
19.91996,-0.000186,-0.000322
19.929965,-0.000163,-0.000282
19.93997,-0.00014,-0.000241
19.949975,-0.000116,-0.000201
19.95998,-9.3e-05,-0.000161
19.969985,-7e-05,-0.000121
19.97999,-4.7e-05,-8e-05
19.989995,-2.3e-05,-4e-05
20.0,-0.0,-0.0
