Time (s),Normal Strain,Shear Strain
0.0,0.0,0.0
0.010005,2.6e-05,4.6e-05
0.02001,5.3e-05,9.2e-05
0.030015,7.9e-05,0.000138
0.04002,0.000106,0.000184
0.050025,0.000132,0.000229
0.06003,0.000158,0.000275
0.070035,0.000185,0.000321
0.08004,0.000211,0.000367
0.090045,0.000237,0.000413
0.10005,0.000264,0.000459
0.110055,0.00029,0.000504
0.12006,0.000317,0.00055
0.130065,0.000343,0.000596
0.14007,0.000369,0.000642
0.150075,0.000395,0.000687
0.16008,0.000422,0.000733
0.170085,0.000448,0.000779
0.18009,0.000474,0.000824
0.190095,0.0005,0.00087
0.2001,0.000527,0.000915
0.210105,0.000553,0.000961
0.22011,0.000579,0.001006
0.230115,0.000605,0.001052
0.24012,0.000631,0.001097
0.250125,0.000657,0.001143
0.26013,0.000683,0.001188
0.270135,0.000709,0.001233
0.28014,0.000735,0.001278
0.290145,0.000761,0.001323
0.30015,0.000787,0.001369
0.310155,0.000813,0.001414
0.32016,0.000839,0.001459
0.330165,0.000865,0.001504
0.34017,0.000891,0.001548
0.350175,0.000917,0.001593
0.36018,0.000942,0.001638
0.370185,0.000968,0.001683
0.38019,0.000994,0.001727
0.390195,0.001019,0.001772
0.4002,0.001045,0.001816
0.410205,0.001071,0.001861
0.42021,0.001096,0.001905
0.430215,0.001122,0.001949
0.44022,0.001147,0.001994
0.450225,0.001172,0.002038
0.46023,0.001198,0.002082
0.470235,0.001223,0.002126
0.48024,0.001248,0.002169
0.490245,0.001273,0.002213
0.50025,0.001298,0.002257
0.510255,0.001324,0.002301
0.52026,0.001349,0.002344
0.530265,0.001374,0.002387
0.54027,0.001399,0.002431
0.550275,0.001423,0.002474
0.56028,0.001448,0.002517
0.570285,0.001473,0.00256
0.58029,0.001498,0.002603
0.590295,0.001522,0.002646
0.6003,0.001547,0.002689
0.610305,0.001571,0.002731
0.62031,0.001596,0.002774
0.630315,0.00162,0.002816
0.64032,0.001645,0.002858
0.650325,0.001669,0.002901
0.66033,0.001693,0.002943
0.670335,0.001717,0.002985
0.68034,0.001741,0.003026
0.690345,0.001765,0.003068
0.70035,0.001789,0.00311
0.710355,0.001813,0.003151
0.72036,0.001837,0.003192
0.730365,0.00186,0.003234
0.74037,0.001884,0.003275
0.750375,0.001908,0.003316
0.76038,0.001931,0.003356
0.770385,0.001955,0.003397
0.78039,0.001978,0.003438
0.790395,0.002001,0.003478
0.8004,0.002024,0.003518
0.810405,0.002047,0.003559
0.82041,0.00207,0.003599
0.830415,0.002093,0.003638
0.84042,0.002116,0.003678
0.850425,0.002139,0.003718
0.86043,0.002162,0.003757
0.870435,0.002184,0.003796
0.88044,0.002207,0.003835
0.890445,0.002229,0.003874
0.90045,0.002251,0.003913
0.910455,0.002274,0.003952
0.92046,0.002296,0.00399
0.930465,0.002318,0.004029
0.94047,0.00234,0.004067
0.950475,0.002362,0.004105
0.96048,0.002384,0.004143
0.970485,0.002405,0.004181
0.98049,0.002427,0.004218
0.990495,0.002448,0.004255
1.0005,0.00247,0.004293
1.010505,0.002491,0.00433
1.02051,0.002512,0.004367
1.030515,0.002533,0.004403
1.04052,0.002554,0.00444
1.050525,0.002575,0.004476
1.06053,0.002596,0.004512
1.070535,0.002617,0.004548
1.08054,0.002637,0.004584
1.090545,0.002658,0.00462
1.10055,0.002678,0.004655
1.110555,0.002699,0.00469
1.12056,0.002719,0.004725
1.130565,0.002739,0.00476
1.14057,0.002759,0.004795
1.150575,0.002779,0.00483
1.16058,0.002798,0.004864
1.170585,0.002818,0.004898
1.18059,0.002838,0.004932
1.190595,0.002857,0.004966
1.2006,0.002876,0.004999
1.210605,0.002895,0.005033
1.22061,0.002915,0.005066
1.230615,0.002933,0.005099
1.24062,0.002952,0.005131
1.250625,0.002971,0.005164
1.26063,0.00299,0.005196
1.270635,0.003008,0.005228
1.28064,0.003026,0.00526
1.290645,0.003045,0.005292
1.30065,0.003063,0.005324
1.310655,0.003081,0.005355
1.32066,0.003099,0.005386
1.330665,0.003116,0.005417
1.34067,0.003134,0.005447
1.350675,0.003152,0.005478
1.36068,0.003169,0.005508
1.370685,0.003186,0.005538
1.38069,0.003203,0.005568
1.390695,0.00322,0.005597
1.4007,0.003237,0.005627
1.410705,0.003254,0.005656
1.42071,0.003271,0.005685
1.430715,0.003287,0.005713
1.44072,0.003304,0.005742
1.450725,0.00332,0.00577
1.46073,0.003336,0.005798
1.470735,0.003352,0.005826
1.48074,0.003368,0.005853
1.490745,0.003383,0.005881
1.50075,0.003399,0.005908
1.510755,0.003414,0.005935
1.52076,0.00343,0.005961
1.530765,0.003445,0.005988
1.54077,0.00346,0.006014
1.550775,0.003475,0.00604
1.56078,0.00349,0.006065
1.570785,0.003504,0.006091
1.58079,0.003519,0.006116
1.590795,0.003533,0.006141
1.6008,0.003547,0.006166
1.610805,0.003561,0.00619
1.62081,0.003575,0.006214
1.630815,0.003589,0.006238
1.64082,0.003603,0.006262
1.650825,0.003616,0.006285
1.66083,0.00363,0.006309
1.670835,0.003643,0.006332
1.68084,0.003656,0.006354
1.690845,0.003669,0.006377
1.70085,0.003682,0.006399
1.710855,0.003694,0.006421
1.72086,0.003707,0.006443
1.730865,0.003719,0.006464
1.74087,0.003731,0.006485
1.750875,0.003743,0.006506
1.76088,0.003755,0.006527
1.770885,0.003767,0.006547
1.78089,0.003779,0.006567
1.790895,0.00379,0.006587
1.8009,0.003801,0.006607
1.810905,0.003812,0.006626
1.82091,0.003823,0.006646
1.830915,0.003834,0.006664
1.84092,0.003845,0.006683
1.850925,0.003856,0.006701
1.86093,0.003866,0.006719
1.870935,0.003876,0.006737
1.88094,0.003886,0.006755
1.890945,0.003896,0.006772
1.90095,0.003906,0.006789
1.910955,0.003916,0.006806
1.92096,0.003925,0.006822
1.930965,0.003934,0.006838
1.94097,0.003944,0.006854
1.950975,0.003953,0.00687
1.96098,0.003961,0.006885
1.970985,0.00397,0.0069
1.98099,0.003979,0.006915
1.990995,0.003987,0.00693
2.001001,0.003995,0.006944
2.011006,0.004003,0.006958
2.021011,0.004011,0.006972
2.031016,0.004019,0.006985
2.041021,0.004027,0.006999
2.051026,0.004034,0.007011
2.061031,0.004041,0.007024
2.071036,0.004048,0.007036
2.081041,0.004055,0.007049
2.091046,0.004062,0.00706
2.101051,0.004069,0.007072
2.111056,0.004075,0.007083
2.121061,0.004082,0.007094
2.131066,0.004088,0.007105
2.141071,0.004094,0.007115
2.151076,0.004099,0.007125
2.161081,0.004105,0.007135
2.171086,0.004111,0.007145
2.181091,0.004116,0.007154
2.191096,0.004121,0.007163
2.201101,0.004126,0.007172
2.211106,0.004131,0.00718
2.221111,0.004136,0.007188
2.231116,0.00414,0.007196
2.241121,0.004145,0.007204
2.251126,0.004149,0.007211
2.261131,0.004153,0.007218
2.271136,0.004157,0.007225
2.281141,0.00416,0.007231
2.291146,0.004164,0.007237
2.301151,0.004167,0.007243
2.311156,0.00417,0.007249
2.321161,0.004174,0.007254
2.331166,0.004176,0.007259
2.341171,0.004179,0.007264
2.351176,0.004182,0.007268
2.361181,0.004184,0.007272
2.371186,0.004186,0.007276
2.381191,0.004188,0.00728
2.391196,0.00419,0.007283
2.401201,0.004192,0.007286
2.411206,0.004193,0.007289
2.421211,0.004195,0.007291
2.431216,0.004196,0.007293
2.441221,0.004197,0.007295
2.451226,0.004198,0.007297
2.461231,0.004199,0.007298
2.471236,0.004199,0.007299
2.481241,0.0042,0.007299
2.491246,0.0042,0.0073
2.501251,0.0042,0.0073
2.511256,0.0042,0.0073
2.521261,0.0042,0.007299
2.531266,0.004199,0.007299
2.541271,0.004199,0.007298
2.551276,0.004198,0.007296
2.561281,0.004197,0.007295
2.571286,0.004196,0.007293
2.581291,0.004195,0.00729
2.591296,0.004193,0.007288
2.601301,0.004191,0.007285
2.611306,0.00419,0.007282
2.621311,0.004188,0.007279
2.631316,0.004186,0.007275
2.641321,0.004183,0.007271
2.651326,0.004181,0.007267
2.661331,0.004178,0.007263
2.671336,0.004176,0.007258
2.681341,0.004173,0.007253
2.691346,0.00417,0.007247
2.701351,0.004166,0.007242
2.711356,0.004163,0.007236
2.721361,0.004159,0.00723
2.731366,0.004156,0.007223
2.741371,0.004152,0.007216
2.751376,0.004148,0.007209
2.761381,0.004143,0.007202
2.771386,0.004139,0.007194
2.781391,0.004135,0.007186
2.791396,0.00413,0.007178
2.801401,0.004125,0.007169
2.811406,0.00412,0.007161
2.821411,0.004115,0.007152
2.831416,0.004109,0.007142
2.841421,0.004104,0.007133
2.851426,0.004098,0.007123
2.861431,0.004092,0.007113
2.871436,0.004086,0.007102
2.881441,0.00408,0.007091
2.891446,0.004074,0.00708
2.901451,0.004067,0.007069
2.911456,0.00406,0.007057
2.921461,0.004054,0.007046
2.931466,0.004047,0.007033
2.941471,0.004039,0.007021
2.951476,0.004032,0.007008
2.961481,0.004025,0.006995
2.971486,0.004017,0.006982
2.981491,0.004009,0.006968
2.991496,0.004001,0.006955
3.001501,0.003993,0.006941
3.011506,0.003985,0.006926
3.021511,0.003977,0.006912
3.031516,0.003968,0.006897
3.041521,0.003959,0.006882
3.051526,0.00395,0.006866
3.061531,0.003941,0.00685
3.071536,0.003932,0.006834
3.081541,0.003923,0.006818
3.091546,0.003913,0.006802
3.101551,0.003904,0.006785
3.111556,0.003894,0.006768
3.121561,0.003884,0.00675
3.131566,0.003874,0.006733
3.141571,0.003863,0.006715
3.151576,0.003853,0.006697
3.161581,0.003842,0.006678
3.171586,0.003832,0.00666
3.181591,0.003821,0.006641
3.191596,0.00381,0.006622
3.201601,0.003798,0.006602
3.211606,0.003787,0.006582
3.221611,0.003776,0.006562
3.231616,0.003764,0.006542
3.241621,0.003752,0.006522
3.251626,0.00374,0.006501
3.261631,0.003728,0.00648
3.271636,0.003716,0.006459
3.281641,0.003704,0.006437
3.291646,0.003691,0.006415
3.301651,0.003678,0.006393
3.311656,0.003666,0.006371
3.321661,0.003653,0.006349
3.331666,0.00364,0.006326
3.341671,0.003626,0.006303
3.351676,0.003613,0.00628
3.361681,0.003599,0.006256
3.371686,0.003586,0.006232
3.381691,0.003572,0.006208
3.391696,0.003558,0.006184
3.401701,0.003544,0.006159
3.411706,0.00353,0.006135
3.421711,0.003515,0.00611
3.431716,0.003501,0.006084
3.441721,0.003486,0.006059
3.451726,0.003471,0.006033
3.461731,0.003456,0.006007
3.471736,0.003441,0.005981
3.481741,0.003426,0.005955
3.491746,0.003411,0.005928
3.501751,0.003395,0.005901
3.511756,0.00338,0.005874
3.521761,0.003364,0.005847
3.531766,0.003348,0.005819
3.541771,0.003332,0.005791
3.551776,0.003316,0.005763
3.561781,0.0033,0.005735
3.571786,0.003283,0.005706
3.581791,0.003267,0.005678
3.591796,0.00325,0.005649
3.601801,0.003233,0.005619
3.611806,0.003216,0.00559
3.621811,0.003199,0.00556
3.631816,0.003182,0.005531
3.641821,0.003165,0.005501
3.651826,0.003147,0.00547
3.661831,0.00313,0.00544
3.671836,0.003112,0.005409
3.681841,0.003094,0.005378
3.691846,0.003076,0.005347
3.701851,0.003058,0.005316
3.711856,0.00304,0.005284
3.721861,0.003022,0.005252
3.731866,0.003003,0.00522
3.741871,0.002985,0.005188
3.751876,0.002966,0.005156
3.761881,0.002948,0.005123
3.771886,0.002929,0.00509
3.781891,0.00291,0.005057
3.791896,0.002891,0.005024
3.801901,0.002871,0.004991
3.811906,0.002852,0.004957
3.821911,0.002833,0.004923
3.831916,0.002813,0.004889
3.841921,0.002793,0.004855
3.851926,0.002774,0.004821
3.861931,0.002754,0.004786
3.871936,0.002734,0.004752
3.881941,0.002714,0.004717
3.891946,0.002694,0.004682
3.901951,0.002673,0.004646
3.911956,0.002653,0.004611
3.921961,0.002632,0.004575
3.931966,0.002612,0.004539
3.941971,0.002591,0.004503
3.951976,0.00257,0.004467
3.961981,0.002549,0.004431
3.971986,0.002528,0.004394
3.981991,0.002507,0.004357
3.991996,0.002486,0.00432
4.002001,0.002464,0.004283
4.012006,0.002443,0.004246
4.022011,0.002421,0.004209
4.032016,0.0024,0.004171
4.042021,0.002378,0.004133
4.052026,0.002356,0.004096
4.062031,0.002334,0.004057
4.072036,0.002312,0.004019
4.082041,0.00229,0.003981
4.092046,0.002268,0.003942
4.102051,0.002246,0.003904
4.112056,0.002224,0.003865
4.122061,0.002201,0.003826
4.132066,0.002179,0.003787
4.142071,0.002156,0.003747
4.152076,0.002133,0.003708
4.162081,0.00211,0.003668
4.172086,0.002088,0.003628
4.182091,0.002065,0.003589
4.192096,0.002042,0.003549
4.202101,0.002019,0.003508
4.212106,0.001995,0.003468
4.222111,0.001972,0.003428
4.232116,0.001949,0.003387
4.242121,0.001925,0.003346
4.252126,0.001902,0.003305
4.262131,0.001878,0.003264
4.272136,0.001855,0.003223
4.282141,0.001831,0.003182
4.292146,0.001807,0.003141
4.302151,0.001783,0.003099
4.312156,0.001759,0.003058
4.322161,0.001735,0.003016
4.332166,0.001711,0.002974
4.342171,0.001687,0.002932
4.352176,0.001663,0.00289
4.362181,0.001638,0.002848
4.372186,0.001614,0.002806
4.382191,0.00159,0.002763
4.392196,0.001565,0.002721
4.402201,0.001541,0.002678
4.412206,0.001516,0.002635
4.422211,0.001491,0.002592
4.432216,0.001467,0.002549
4.442221,0.001442,0.002506
4.452226,0.001417,0.002463
4.462231,0.001392,0.00242
4.472236,0.001367,0.002377
4.482241,0.001342,0.002333
4.492246,0.001317,0.00229
4.502251,0.001292,0.002246
4.512256,0.001267,0.002202
4.522261,0.001242,0.002158
4.532266,0.001217,0.002115
4.542271,0.001191,0.002071
4.552276,0.001166,0.002027
4.562281,0.001141,0.001982
4.572286,0.001115,0.001938
4.582291,0.00109,0.001894
4.592296,0.001064,0.00185
4.602301,0.001039,0.001805
4.612306,0.001013,0.001761
4.622311,0.000987,0.001716
4.632316,0.000962,0.001672
4.642321,0.000936,0.001627
4.652326,0.00091,0.001582
4.662331,0.000884,0.001537
4.672336,0.000859,0.001492
4.682341,0.000833,0.001447
4.692346,0.000807,0.001402
4.702351,0.000781,0.001357
4.712356,0.000755,0.001312
4.722361,0.000729,0.001267
4.732366,0.000703,0.001222
4.742371,0.000677,0.001177
4.752376,0.000651,0.001131
4.762381,0.000625,0.001086
4.772386,0.000599,0.00104
4.782391,0.000572,0.000995
4.792396,0.000546,0.00095
4.802401,0.00052,0.000904
4.812406,0.000494,0.000858
4.822411,0.000468,0.000813
4.832416,0.000441,0.000767
4.842421,0.000415,0.000722
4.852426,0.000389,0.000676
4.862431,0.000363,0.00063
4.872436,0.000336,0.000584
4.882441,0.00031,0.000539
4.892446,0.000284,0.000493
4.902451,0.000257,0.000447
4.912456,0.000231,0.000401
4.922461,0.000205,0.000356
4.932466,0.000178,0.00031
4.942471,0.000152,0.000264
4.952476,0.000125,0.000218
4.962481,9.9e-05,0.000172
4.972486,7.3e-05,0.000126
4.982491,4.6e-05,8e-05
4.992496,2e-05,3.4e-05
5.002501,-7e-06,-1.1e-05
5.012506,-3.3e-05,-5.7e-05
5.022511,-5.9e-05,-0.000103
5.032516,-8.6e-05,-0.000149
5.042521,-0.000112,-0.000195
5.052526,-0.000139,-0.000241
5.062531,-0.000165,-0.000287
5.072536,-0.000191,-0.000333
5.082541,-0.000218,-0.000378
5.092546,-0.000244,-0.000424
5.102551,-0.00027,-0.00047
5.112556,-0.000297,-0.000516
5.122561,-0.000323,-0.000562
5.132566,-0.000349,-0.000607
5.142571,-0.000376,-0.000653
5.152576,-0.000402,-0.000699
5.162581,-0.000428,-0.000744
5.172586,-0.000455,-0.00079
5.182591,-0.000481,-0.000836
5.192596,-0.000507,-0.000881
5.202601,-0.000533,-0.000927
5.212606,-0.000559,-0.000972
5.222611,-0.000586,-0.001018
5.232616,-0.000612,-0.001063
5.242621,-0.000638,-0.001109
5.252626,-0.000664,-0.001154
5.262631,-0.00069,-0.001199
5.272636,-0.000716,-0.001244
5.282641,-0.000742,-0.00129
5.292646,-0.000768,-0.001335
5.302651,-0.000794,-0.00138
5.312656,-0.00082,-0.001425
5.322661,-0.000846,-0.00147
5.332666,-0.000872,-0.001515
5.342671,-0.000897,-0.00156
5.352676,-0.000923,-0.001604
5.362681,-0.000949,-0.001649
5.372686,-0.000975,-0.001694
5.382691,-0.001,-0.001738
5.392696,-0.001026,-0.001783
5.402701,-0.001051,-0.001827
5.412706,-0.001077,-0.001872
5.422711,-0.001102,-0.001916
5.432716,-0.001128,-0.00196
5.442721,-0.001153,-0.002005
5.452726,-0.001179,-0.002049
5.462731,-0.001204,-0.002093
5.472736,-0.001229,-0.002137
5.482741,-0.001254,-0.00218
5.492746,-0.00128,-0.002224
5.502751,-0.001305,-0.002268
5.512756,-0.00133,-0.002311
5.522761,-0.001355,-0.002355
5.532766,-0.00138,-0.002398
5.542771,-0.001405,-0.002442
5.552776,-0.00143,-0.002485
5.562781,-0.001454,-0.002528
5.572786,-0.001479,-0.002571
5.582791,-0.001504,-0.002614
5.592796,-0.001528,-0.002657
5.602801,-0.001553,-0.002699
5.612806,-0.001577,-0.002742
5.622811,-0.001602,-0.002784
5.632816,-0.001626,-0.002827
5.642821,-0.001651,-0.002869
5.652826,-0.001675,-0.002911
5.662831,-0.001699,-0.002953
5.672836,-0.001723,-0.002995
5.682841,-0.001747,-0.003037
5.692846,-0.001771,-0.003078
5.702851,-0.001795,-0.00312
5.712856,-0.001819,-0.003161
5.722861,-0.001843,-0.003203
5.732866,-0.001866,-0.003244
5.742871,-0.00189,-0.003285
5.752876,-0.001914,-0.003326
5.762881,-0.001937,-0.003367
5.772886,-0.00196,-0.003407
5.782891,-0.001984,-0.003448
5.792896,-0.002007,-0.003488
5.802901,-0.00203,-0.003528
5.812906,-0.002053,-0.003569
5.822911,-0.002076,-0.003609
5.832916,-0.002099,-0.003648
5.842921,-0.002122,-0.003688
5.852926,-0.002145,-0.003728
5.862931,-0.002167,-0.003767
5.872936,-0.00219,-0.003806
5.882941,-0.002212,-0.003845
5.892946,-0.002235,-0.003884
5.902951,-0.002257,-0.003923
5.912956,-0.002279,-0.003962
5.922961,-0.002301,-0.004
5.932966,-0.002323,-0.004038
5.942971,-0.002345,-0.004077
5.952976,-0.002367,-0.004114
5.962981,-0.002389,-0.004152
5.972986,-0.002411,-0.00419
5.982991,-0.002432,-0.004227
5.992996,-0.002454,-0.004265
6.003002,-0.002475,-0.004302
6.013007,-0.002496,-0.004339
6.023012,-0.002518,-0.004376
6.033017,-0.002539,-0.004412
6.043022,-0.00256,-0.004449
6.053027,-0.002581,-0.004485
6.063032,-0.002601,-0.004521
6.073037,-0.002622,-0.004557
6.083042,-0.002643,-0.004593
6.093047,-0.002663,-0.004629
6.103052,-0.002683,-0.004664
6.113057,-0.002704,-0.004699
6.123062,-0.002724,-0.004734
6.133067,-0.002744,-0.004769
6.143072,-0.002764,-0.004804
6.153077,-0.002784,-0.004838
6.163082,-0.002803,-0.004872
6.173087,-0.002823,-0.004906
6.183092,-0.002842,-0.00494
6.193097,-0.002862,-0.004974
6.203102,-0.002881,-0.005008
6.213107,-0.0029,-0.005041
6.223112,-0.002919,-0.005074
6.233117,-0.002938,-0.005107
6.243122,-0.002957,-0.00514
6.253127,-0.002976,-0.005172
6.263132,-0.002994,-0.005204
6.273137,-0.003013,-0.005236
6.283142,-0.003031,-0.005268
6.293147,-0.003049,-0.0053
6.303152,-0.003067,-0.005331
6.313157,-0.003085,-0.005363
6.323162,-0.003103,-0.005394
6.333167,-0.003121,-0.005424
6.343172,-0.003139,-0.005455
6.353177,-0.003156,-0.005485
6.363182,-0.003173,-0.005516
6.373187,-0.003191,-0.005546
6.383192,-0.003208,-0.005575
6.393197,-0.003225,-0.005605
6.403202,-0.003242,-0.005634
6.413207,-0.003258,-0.005663
6.423212,-0.003275,-0.005692
6.433217,-0.003291,-0.005721
6.443222,-0.003308,-0.005749
6.453227,-0.003324,-0.005777
6.463232,-0.00334,-0.005805
6.473237,-0.003356,-0.005833
6.483242,-0.003372,-0.00586
6.493247,-0.003387,-0.005888
6.503252,-0.003403,-0.005915
6.513257,-0.003418,-0.005941
6.523262,-0.003434,-0.005968
6.533267,-0.003449,-0.005994
6.543272,-0.003464,-0.00602
6.553277,-0.003479,-0.006046
6.563282,-0.003493,-0.006072
6.573287,-0.003508,-0.006097
6.583292,-0.003522,-0.006122
6.593297,-0.003537,-0.006147
6.603302,-0.003551,-0.006172
6.613307,-0.003565,-0.006196
6.623312,-0.003579,-0.00622
6.633317,-0.003593,-0.006244
6.643322,-0.003606,-0.006268
6.653327,-0.00362,-0.006291
6.663332,-0.003633,-0.006314
6.673337,-0.003646,-0.006337
6.683342,-0.003659,-0.00636
6.693347,-0.003672,-0.006382
6.703352,-0.003685,-0.006404
6.713357,-0.003697,-0.006426
6.723362,-0.00371,-0.006448
6.733367,-0.003722,-0.006469
6.743372,-0.003734,-0.00649
6.753377,-0.003746,-0.006511
6.763382,-0.003758,-0.006532
6.773387,-0.00377,-0.006552
6.783392,-0.003781,-0.006572
6.793397,-0.003793,-0.006592
6.803402,-0.003804,-0.006612
6.813407,-0.003815,-0.006631
6.823412,-0.003826,-0.00665
6.833417,-0.003837,-0.006669
6.843422,-0.003848,-0.006688
6.853427,-0.003858,-0.006706
6.863432,-0.003869,-0.006724
6.873437,-0.003879,-0.006742
6.883442,-0.003889,-0.006759
6.893447,-0.003899,-0.006776
6.903452,-0.003908,-0.006793
6.913457,-0.003918,-0.00681
6.923462,-0.003927,-0.006826
6.933467,-0.003937,-0.006842
6.943472,-0.003946,-0.006858
6.953477,-0.003955,-0.006874
6.963482,-0.003964,-0.006889
6.973487,-0.003972,-0.006904
6.983492,-0.003981,-0.006919
6.993497,-0.003989,-0.006933
7.003502,-0.003997,-0.006948
7.013507,-0.004005,-0.006962
7.023512,-0.004013,-0.006975
7.033517,-0.004021,-0.006989
7.043522,-0.004028,-0.007002
7.053527,-0.004036,-0.007015
7.063532,-0.004043,-0.007027
7.073537,-0.00405,-0.007039
7.083542,-0.004057,-0.007052
7.093547,-0.004064,-0.007063
7.103552,-0.00407,-0.007075
7.113557,-0.004077,-0.007086
7.123562,-0.004083,-0.007097
7.133567,-0.004089,-0.007107
7.143572,-0.004095,-0.007118
7.153577,-0.004101,-0.007128
7.163582,-0.004107,-0.007138
7.173587,-0.004112,-0.007147
7.183592,-0.004117,-0.007156
7.193597,-0.004122,-0.007165
7.203602,-0.004127,-0.007174
7.213607,-0.004132,-0.007182
7.223612,-0.004137,-0.00719
7.233617,-0.004141,-0.007198
7.243622,-0.004146,-0.007205
7.253627,-0.00415,-0.007213
7.263632,-0.004154,-0.00722
7.273637,-0.004158,-0.007226
7.283642,-0.004161,-0.007233
7.293647,-0.004165,-0.007239
7.303652,-0.004168,-0.007245
7.313657,-0.004171,-0.00725
7.323662,-0.004174,-0.007255
7.333667,-0.004177,-0.00726
7.343672,-0.00418,-0.007265
7.353677,-0.004182,-0.007269
7.363682,-0.004185,-0.007273
7.373687,-0.004187,-0.007277
7.383692,-0.004189,-0.007281
7.393697,-0.004191,-0.007284
7.403702,-0.004192,-0.007287
7.413707,-0.004194,-0.007289
7.423712,-0.004195,-0.007292
7.433717,-0.004196,-0.007294
7.443722,-0.004197,-0.007295
7.453727,-0.004198,-0.007297
7.463732,-0.004199,-0.007298
7.473737,-0.004199,-0.007299
7.483742,-0.0042,-0.0073
7.493747,-0.0042,-0.0073
7.503752,-0.0042,-0.0073
7.513757,-0.0042,-0.0073
7.523762,-0.0042,-0.007299
7.533767,-0.004199,-0.007298
7.543772,-0.004198,-0.007297
7.553777,-0.004198,-0.007296
7.563782,-0.004197,-0.007294
7.573787,-0.004195,-0.007292
7.583792,-0.004194,-0.00729
7.593797,-0.004193,-0.007287
7.603802,-0.004191,-0.007284
7.613807,-0.004189,-0.007281
7.623812,-0.004187,-0.007278
7.633817,-0.004185,-0.007274
7.643822,-0.004183,-0.00727
7.653827,-0.00418,-0.007266
7.663832,-0.004178,-0.007261
7.673837,-0.004175,-0.007256
7.683842,-0.004172,-0.007251
7.693847,-0.004169,-0.007246
7.703852,-0.004166,-0.00724
7.713857,-0.004162,-0.007234
7.723862,-0.004159,-0.007228
7.733867,-0.004155,-0.007221
7.743872,-0.004151,-0.007214
7.753877,-0.004147,-0.007207
7.763882,-0.004142,-0.0072
7.773887,-0.004138,-0.007192
7.783892,-0.004133,-0.007184
7.793897,-0.004129,-0.007176
7.803902,-0.004124,-0.007167
7.813907,-0.004119,-0.007158
7.823912,-0.004113,-0.007149
7.833917,-0.004108,-0.00714
7.843922,-0.004102,-0.00713
7.853927,-0.004097,-0.00712
7.863932,-0.004091,-0.00711
7.873937,-0.004085,-0.007099
7.883942,-0.004078,-0.007089
7.893947,-0.004072,-0.007078
7.903952,-0.004065,-0.007066
7.913957,-0.004059,-0.007054
7.923962,-0.004052,-0.007043
7.933967,-0.004045,-0.00703
7.943972,-0.004038,-0.007018
7.953977,-0.00403,-0.007005
7.963982,-0.004023,-0.006992
7.973987,-0.004015,-0.006979
7.983992,-0.004007,-0.006965
7.993997,-0.003999,-0.006951
8.004002,-0.003991,-0.006937
8.014007,-0.003983,-0.006923
8.024012,-0.003974,-0.006908
8.034017,-0.003966,-0.006893
8.044022,-0.003957,-0.006878
8.054027,-0.003948,-0.006862
8.064032,-0.003939,-0.006846
8.074037,-0.00393,-0.00683
8.084042,-0.00392,-0.006814
8.094047,-0.003911,-0.006797
8.104052,-0.003901,-0.006781
8.114057,-0.003891,-0.006763
8.124062,-0.003881,-0.006746
8.134067,-0.003871,-0.006728
8.144072,-0.003861,-0.00671
8.154077,-0.00385,-0.006692
8.164082,-0.00384,-0.006674
8.174087,-0.003829,-0.006655
8.184092,-0.003818,-0.006636
8.194097,-0.003807,-0.006617
8.204102,-0.003796,-0.006597
8.214107,-0.003784,-0.006577
8.224112,-0.003773,-0.006557
8.234117,-0.003761,-0.006537
8.244122,-0.003749,-0.006517
8.254127,-0.003737,-0.006496
8.264132,-0.003725,-0.006475
8.274137,-0.003713,-0.006453
8.284142,-0.0037,-0.006432
8.294147,-0.003688,-0.00641
8.304152,-0.003675,-0.006388
8.314157,-0.003662,-0.006366
8.324162,-0.003649,-0.006343
8.334167,-0.003636,-0.00632
8.344172,-0.003623,-0.006297
8.354177,-0.003609,-0.006274
8.364182,-0.003596,-0.00625
8.374187,-0.003582,-0.006226
8.384192,-0.003568,-0.006202
8.394197,-0.003554,-0.006178
8.404202,-0.00354,-0.006153
8.414207,-0.003526,-0.006128
8.424212,-0.003512,-0.006103
8.434217,-0.003497,-0.006078
8.444222,-0.003482,-0.006053
8.454227,-0.003467,-0.006027
8.464232,-0.003452,-0.006001
8.474237,-0.003437,-0.005975
8.484242,-0.003422,-0.005948
8.494247,-0.003407,-0.005921
8.504252,-0.003391,-0.005894
8.514257,-0.003376,-0.005867
8.524262,-0.00336,-0.00584
8.534267,-0.003344,-0.005812
8.544272,-0.003328,-0.005784
8.554277,-0.003312,-0.005756
8.564282,-0.003295,-0.005728
8.574287,-0.003279,-0.005699
8.584292,-0.003262,-0.00567
8.594297,-0.003246,-0.005641
8.604302,-0.003229,-0.005612
8.614307,-0.003212,-0.005583
8.624312,-0.003195,-0.005553
8.634317,-0.003178,-0.005523
8.644322,-0.00316,-0.005493
8.654327,-0.003143,-0.005463
8.664332,-0.003125,-0.005432
8.674337,-0.003108,-0.005401
8.684342,-0.00309,-0.00537
8.694347,-0.003072,-0.005339
8.704352,-0.003054,-0.005308
8.714357,-0.003036,-0.005276
8.724362,-0.003017,-0.005244
8.734367,-0.002999,-0.005212
8.744372,-0.00298,-0.00518
8.754377,-0.002962,-0.005148
8.764382,-0.002943,-0.005115
8.774387,-0.002924,-0.005082
8.784392,-0.002905,-0.005049
8.794397,-0.002886,-0.005016
8.804402,-0.002867,-0.004982
8.814407,-0.002847,-0.004949
8.824412,-0.002828,-0.004915
8.834417,-0.002808,-0.004881
8.844422,-0.002789,-0.004847
8.854427,-0.002769,-0.004812
8.864432,-0.002749,-0.004778
8.874437,-0.002729,-0.004743
8.884442,-0.002709,-0.004708
8.894447,-0.002688,-0.004673
8.904452,-0.002668,-0.004637
8.914457,-0.002648,-0.004602
8.924462,-0.002627,-0.004566
8.934467,-0.002606,-0.00453
8.944472,-0.002586,-0.004494
8.954477,-0.002565,-0.004458
8.964482,-0.002544,-0.004422
8.974487,-0.002523,-0.004385
8.984492,-0.002502,-0.004348
8.994497,-0.00248,-0.004311
9.004502,-0.002459,-0.004274
9.014507,-0.002438,-0.004237
9.024512,-0.002416,-0.004199
9.034517,-0.002394,-0.004162
9.044522,-0.002373,-0.004124
9.054527,-0.002351,-0.004086
9.064532,-0.002329,-0.004048
9.074537,-0.002307,-0.00401
9.084542,-0.002285,-0.003971
9.094547,-0.002263,-0.003933
9.104552,-0.00224,-0.003894
9.114557,-0.002218,-0.003855
9.124562,-0.002195,-0.003816
9.134567,-0.002173,-0.003777
9.144572,-0.00215,-0.003737
9.154577,-0.002128,-0.003698
9.164582,-0.002105,-0.003658
9.174587,-0.002082,-0.003618
9.184592,-0.002059,-0.003579
9.194597,-0.002036,-0.003538
9.204602,-0.002013,-0.003498
9.214607,-0.00199,-0.003458
9.224612,-0.001966,-0.003417
9.234617,-0.001943,-0.003377
9.244622,-0.001919,-0.003336
9.254627,-0.001896,-0.003295
9.264632,-0.001872,-0.003254
9.274637,-0.001849,-0.003213
9.284642,-0.001825,-0.003172
9.294647,-0.001801,-0.00313
9.304652,-0.001777,-0.003089
9.314657,-0.001753,-0.003047
9.324662,-0.001729,-0.003005
9.334667,-0.001705,-0.002964
9.344672,-0.001681,-0.002922
9.354677,-0.001657,-0.002879
9.364682,-0.001632,-0.002837
9.374687,-0.001608,-0.002795
9.384692,-0.001584,-0.002752
9.394697,-0.001559,-0.00271
9.404702,-0.001535,-0.002667
9.414707,-0.00151,-0.002624
9.424712,-0.001485,-0.002582
9.434717,-0.001461,-0.002539
9.444722,-0.001436,-0.002496
9.454727,-0.001411,-0.002452
9.464732,-0.001386,-0.002409
9.474737,-0.001361,-0.002366
9.484742,-0.001336,-0.002322
9.494747,-0.001311,-0.002279
9.504752,-0.001286,-0.002235
9.514757,-0.001261,-0.002191
9.524762,-0.001236,-0.002148
9.534767,-0.00121,-0.002104
9.544772,-0.001185,-0.00206
9.554777,-0.00116,-0.002016
9.564782,-0.001134,-0.001971
9.574787,-0.001109,-0.001927
9.584792,-0.001083,-0.001883
9.594797,-0.001058,-0.001839
9.604802,-0.001032,-0.001794
9.614807,-0.001007,-0.00175
9.624812,-0.000981,-0.001705
9.634817,-0.000955,-0.00166
9.644822,-0.00093,-0.001616
9.654827,-0.000904,-0.001571
9.664832,-0.000878,-0.001526
9.674837,-0.000852,-0.001481
9.684842,-0.000826,-0.001436
9.694847,-0.0008,-0.001391
9.704852,-0.000774,-0.001346
9.714857,-0.000748,-0.001301
9.724862,-0.000722,-0.001256
9.734867,-0.000696,-0.00121
9.744872,-0.00067,-0.001165
9.754877,-0.000644,-0.00112
9.764882,-0.000618,-0.001075
9.774887,-0.000592,-0.001029
9.784892,-0.000566,-0.000984
9.794897,-0.00054,-0.000938
9.804902,-0.000514,-0.000893
9.814907,-0.000487,-0.000847
9.824912,-0.000461,-0.000801
9.834917,-0.000435,-0.000756
9.844922,-0.000409,-0.00071
9.854927,-0.000382,-0.000664
9.864932,-0.000356,-0.000619
9.874937,-0.00033,-0.000573
9.884942,-0.000303,-0.000527
9.894947,-0.000277,-0.000481
9.904952,-0.000251,-0.000436
9.914957,-0.000224,-0.00039
9.924962,-0.000198,-0.000344
9.934967,-0.000172,-0.000298
9.944972,-0.000145,-0.000252
9.954977,-0.000119,-0.000206
9.964982,-9.2e-05,-0.000161
9.974987,-6.6e-05,-0.000115
9.984992,-4e-05,-6.9e-05
9.994997,-1.3e-05,-2.3e-05
10.005003,1.3e-05,2.3e-05
10.015008,4e-05,6.9e-05
10.025013,6.6e-05,0.000115
10.035018,9.2e-05,0.000161
10.045023,0.000119,0.000206
10.055028,0.000145,0.000252
10.065033,0.000172,0.000298
10.075038,0.000198,0.000344
10.085043,0.000224,0.00039
10.095048,0.000251,0.000436
10.105053,0.000277,0.000481
10.115058,0.000303,0.000527
10.125063,0.00033,0.000573
10.135068,0.000356,0.000619
10.145073,0.000382,0.000664
10.155078,0.000409,0.00071
10.165083,0.000435,0.000756
10.175088,0.000461,0.000801
10.185093,0.000487,0.000847
10.195098,0.000514,0.000893
10.205103,0.00054,0.000938
10.215108,0.000566,0.000984
10.225113,0.000592,0.001029
10.235118,0.000618,0.001075
10.245123,0.000644,0.00112
10.255128,0.00067,0.001165
10.265133,0.000696,0.00121
10.275138,0.000722,0.001256
10.285143,0.000748,0.001301
10.295148,0.000774,0.001346
10.305153,0.0008,0.001391
10.315158,0.000826,0.001436
10.325163,0.000852,0.001481
10.335168,0.000878,0.001526
10.345173,0.000904,0.001571
10.355178,0.00093,0.001616
10.365183,0.000955,0.00166
10.375188,0.000981,0.001705
10.385193,0.001007,0.00175
10.395198,0.001032,0.001794
10.405203,0.001058,0.001839
10.415208,0.001083,0.001883
10.425213,0.001109,0.001927
10.435218,0.001134,0.001971
10.445223,0.00116,0.002016
10.455228,0.001185,0.00206
10.465233,0.00121,0.002104
10.475238,0.001236,0.002148
10.485243,0.001261,0.002191
10.495248,0.001286,0.002235
10.505253,0.001311,0.002279
10.515258,0.001336,0.002322
10.525263,0.001361,0.002366
10.535268,0.001386,0.002409
10.545273,0.001411,0.002452
10.555278,0.001436,0.002496
10.565283,0.001461,0.002539
10.575288,0.001485,0.002582
10.585293,0.00151,0.002624
10.595298,0.001535,0.002667
10.605303,0.001559,0.00271
10.615308,0.001584,0.002752
10.625313,0.001608,0.002795
10.635318,0.001632,0.002837
10.645323,0.001657,0.002879
10.655328,0.001681,0.002922
10.665333,0.001705,0.002964
10.675338,0.001729,0.003005
10.685343,0.001753,0.003047
10.695348,0.001777,0.003089
10.705353,0.001801,0.00313
10.715358,0.001825,0.003172
10.725363,0.001849,0.003213
10.735368,0.001872,0.003254
10.745373,0.001896,0.003295
10.755378,0.001919,0.003336
10.765383,0.001943,0.003377
10.775388,0.001966,0.003417
10.785393,0.00199,0.003458
10.795398,0.002013,0.003498
10.805403,0.002036,0.003538
10.815408,0.002059,0.003579
10.825413,0.002082,0.003618
10.835418,0.002105,0.003658
10.845423,0.002128,0.003698
10.855428,0.00215,0.003737
10.865433,0.002173,0.003777
10.875438,0.002195,0.003816
10.885443,0.002218,0.003855
10.895448,0.00224,0.003894
10.905453,0.002263,0.003933
10.915458,0.002285,0.003971
10.925463,0.002307,0.00401
10.935468,0.002329,0.004048
10.945473,0.002351,0.004086
10.955478,0.002373,0.004124
10.965483,0.002394,0.004162
10.975488,0.002416,0.004199
10.985493,0.002438,0.004237
10.995498,0.002459,0.004274
11.005503,0.00248,0.004311
11.015508,0.002502,0.004348
11.025513,0.002523,0.004385
11.035518,0.002544,0.004422
11.045523,0.002565,0.004458
11.055528,0.002586,0.004494
11.065533,0.002606,0.00453
11.075538,0.002627,0.004566
11.085543,0.002648,0.004602
11.095548,0.002668,0.004637
11.105553,0.002688,0.004673
11.115558,0.002709,0.004708
11.125563,0.002729,0.004743
11.135568,0.002749,0.004778
11.145573,0.002769,0.004812
11.155578,0.002789,0.004847
11.165583,0.002808,0.004881
11.175588,0.002828,0.004915
11.185593,0.002847,0.004949
11.195598,0.002867,0.004982
11.205603,0.002886,0.005016
11.215608,0.002905,0.005049
11.225613,0.002924,0.005082
11.235618,0.002943,0.005115
11.245623,0.002962,0.005148
11.255628,0.00298,0.00518
11.265633,0.002999,0.005212
11.275638,0.003017,0.005244
11.285643,0.003036,0.005276
11.295648,0.003054,0.005308
11.305653,0.003072,0.005339
11.315658,0.00309,0.00537
11.325663,0.003108,0.005401
11.335668,0.003125,0.005432
11.345673,0.003143,0.005463
11.355678,0.00316,0.005493
11.365683,0.003178,0.005523
11.375688,0.003195,0.005553
11.385693,0.003212,0.005583
11.395698,0.003229,0.005612
11.405703,0.003246,0.005641
11.415708,0.003262,0.00567
11.425713,0.003279,0.005699
11.435718,0.003295,0.005728
11.445723,0.003312,0.005756
11.455728,0.003328,0.005784
11.465733,0.003344,0.005812
11.475738,0.00336,0.00584
11.485743,0.003376,0.005867
11.495748,0.003391,0.005894
11.505753,0.003407,0.005921
11.515758,0.003422,0.005948
11.525763,0.003437,0.005975
11.535768,0.003452,0.006001
11.545773,0.003467,0.006027
11.555778,0.003482,0.006053
11.565783,0.003497,0.006078
11.575788,0.003512,0.006103
11.585793,0.003526,0.006128
11.595798,0.00354,0.006153
11.605803,0.003554,0.006178
11.615808,0.003568,0.006202
11.625813,0.003582,0.006226
11.635818,0.003596,0.00625
11.645823,0.003609,0.006274
11.655828,0.003623,0.006297
11.665833,0.003636,0.00632
11.675838,0.003649,0.006343
11.685843,0.003662,0.006366
11.695848,0.003675,0.006388
11.705853,0.003688,0.00641
11.715858,0.0037,0.006432
11.725863,0.003713,0.006453
11.735868,0.003725,0.006475
11.745873,0.003737,0.006496
11.755878,0.003749,0.006517
11.765883,0.003761,0.006537
11.775888,0.003773,0.006557
11.785893,0.003784,0.006577
11.795898,0.003796,0.006597
11.805903,0.003807,0.006617
11.815908,0.003818,0.006636
11.825913,0.003829,0.006655
11.835918,0.00384,0.006674
11.845923,0.00385,0.006692
11.855928,0.003861,0.00671
11.865933,0.003871,0.006728
11.875938,0.003881,0.006746
11.885943,0.003891,0.006763
11.895948,0.003901,0.006781
11.905953,0.003911,0.006797
11.915958,0.00392,0.006814
11.925963,0.00393,0.00683
11.935968,0.003939,0.006846
11.945973,0.003948,0.006862
11.955978,0.003957,0.006878
11.965983,0.003966,0.006893
11.975988,0.003974,0.006908
11.985993,0.003983,0.006923
11.995998,0.003991,0.006937
12.006003,0.003999,0.006951
12.016008,0.004007,0.006965
12.026013,0.004015,0.006979
12.036018,0.004023,0.006992
12.046023,0.00403,0.007005
12.056028,0.004038,0.007018
12.066033,0.004045,0.00703
12.076038,0.004052,0.007043
12.086043,0.004059,0.007054
12.096048,0.004065,0.007066
12.106053,0.004072,0.007078
12.116058,0.004078,0.007089
12.126063,0.004085,0.007099
12.136068,0.004091,0.00711
12.146073,0.004097,0.00712
12.156078,0.004102,0.00713
12.166083,0.004108,0.00714
12.176088,0.004113,0.007149
12.186093,0.004119,0.007158
12.196098,0.004124,0.007167
12.206103,0.004129,0.007176
12.216108,0.004133,0.007184
12.226113,0.004138,0.007192
12.236118,0.004142,0.0072
12.246123,0.004147,0.007207
12.256128,0.004151,0.007214
12.266133,0.004155,0.007221
12.276138,0.004159,0.007228
12.286143,0.004162,0.007234
12.296148,0.004166,0.00724
12.306153,0.004169,0.007246
12.316158,0.004172,0.007251
12.326163,0.004175,0.007256
12.336168,0.004178,0.007261
12.346173,0.00418,0.007266
12.356178,0.004183,0.00727
12.366183,0.004185,0.007274
12.376188,0.004187,0.007278
12.386193,0.004189,0.007281
12.396198,0.004191,0.007284
12.406203,0.004193,0.007287
12.416208,0.004194,0.00729
12.426213,0.004195,0.007292
12.436218,0.004197,0.007294
12.446223,0.004198,0.007296
12.456228,0.004198,0.007297
12.466233,0.004199,0.007298
12.476238,0.0042,0.007299
12.486243,0.0042,0.0073
12.496248,0.0042,0.0073
12.506253,0.0042,0.0073
12.516258,0.0042,0.0073
12.526263,0.004199,0.007299
12.536268,0.004199,0.007298
12.546273,0.004198,0.007297
12.556278,0.004197,0.007295
12.566283,0.004196,0.007294
12.576288,0.004195,0.007292
12.586293,0.004194,0.007289
12.596298,0.004192,0.007287
12.606303,0.004191,0.007284
12.616308,0.004189,0.007281
12.626313,0.004187,0.007277
12.636318,0.004185,0.007273
12.646323,0.004182,0.007269
12.656328,0.00418,0.007265
12.666333,0.004177,0.00726
12.676338,0.004174,0.007255
12.686343,0.004171,0.00725
12.696348,0.004168,0.007245
12.706353,0.004165,0.007239
12.716358,0.004161,0.007233
12.726363,0.004158,0.007226
12.736368,0.004154,0.00722
12.746373,0.00415,0.007213
12.756378,0.004146,0.007205
12.766383,0.004141,0.007198
12.776388,0.004137,0.00719
12.786393,0.004132,0.007182
12.796398,0.004127,0.007174
12.806403,0.004122,0.007165
12.816408,0.004117,0.007156
12.826413,0.004112,0.007147
12.836418,0.004107,0.007138
12.846423,0.004101,0.007128
12.856428,0.004095,0.007118
12.866433,0.004089,0.007107
12.876438,0.004083,0.007097
12.886443,0.004077,0.007086
12.896448,0.00407,0.007075
12.906453,0.004064,0.007063
12.916458,0.004057,0.007052
12.926463,0.00405,0.007039
12.936468,0.004043,0.007027
12.946473,0.004036,0.007015
12.956478,0.004028,0.007002
12.966483,0.004021,0.006989
12.976488,0.004013,0.006975
12.986493,0.004005,0.006962
12.996498,0.003997,0.006948
13.006503,0.003989,0.006933
13.016508,0.003981,0.006919
13.026513,0.003972,0.006904
13.036518,0.003964,0.006889
13.046523,0.003955,0.006874
13.056528,0.003946,0.006858
13.066533,0.003937,0.006842
13.076538,0.003927,0.006826
13.086543,0.003918,0.00681
13.096548,0.003908,0.006793
13.106553,0.003899,0.006776
13.116558,0.003889,0.006759
13.126563,0.003879,0.006742
13.136568,0.003869,0.006724
13.146573,0.003858,0.006706
13.156578,0.003848,0.006688
13.166583,0.003837,0.006669
13.176588,0.003826,0.00665
13.186593,0.003815,0.006631
13.196598,0.003804,0.006612
13.206603,0.003793,0.006592
13.216608,0.003781,0.006572
13.226613,0.00377,0.006552
13.236618,0.003758,0.006532
13.246623,0.003746,0.006511
13.256628,0.003734,0.00649
13.266633,0.003722,0.006469
13.276638,0.00371,0.006448
13.286643,0.003697,0.006426
13.296648,0.003685,0.006404
13.306653,0.003672,0.006382
13.316658,0.003659,0.00636
13.326663,0.003646,0.006337
13.336668,0.003633,0.006314
13.346673,0.00362,0.006291
13.356678,0.003606,0.006268
13.366683,0.003593,0.006244
13.376688,0.003579,0.00622
13.386693,0.003565,0.006196
13.396698,0.003551,0.006172
13.406703,0.003537,0.006147
13.416708,0.003522,0.006122
13.426713,0.003508,0.006097
13.436718,0.003493,0.006072
13.446723,0.003479,0.006046
13.456728,0.003464,0.00602
13.466733,0.003449,0.005994
13.476738,0.003434,0.005968
13.486743,0.003418,0.005941
13.496748,0.003403,0.005915
13.506753,0.003387,0.005888
13.516758,0.003372,0.00586
13.526763,0.003356,0.005833
13.536768,0.00334,0.005805
13.546773,0.003324,0.005777
13.556778,0.003308,0.005749
13.566783,0.003291,0.005721
13.576788,0.003275,0.005692
13.586793,0.003258,0.005663
13.596798,0.003242,0.005634
13.606803,0.003225,0.005605
13.616808,0.003208,0.005575
13.626813,0.003191,0.005546
13.636818,0.003173,0.005516
13.646823,0.003156,0.005485
13.656828,0.003139,0.005455
13.666833,0.003121,0.005424
13.676838,0.003103,0.005394
13.686843,0.003085,0.005363
13.696848,0.003067,0.005331
13.706853,0.003049,0.0053
13.716858,0.003031,0.005268
13.726863,0.003013,0.005236
13.736868,0.002994,0.005204
13.746873,0.002976,0.005172
13.756878,0.002957,0.00514
13.766883,0.002938,0.005107
13.776888,0.002919,0.005074
13.786893,0.0029,0.005041
13.796898,0.002881,0.005008
13.806903,0.002862,0.004974
13.816908,0.002842,0.00494
13.826913,0.002823,0.004906
13.836918,0.002803,0.004872
13.846923,0.002784,0.004838
13.856928,0.002764,0.004804
13.866933,0.002744,0.004769
13.876938,0.002724,0.004734
13.886943,0.002704,0.004699
13.896948,0.002683,0.004664
13.906953,0.002663,0.004629
13.916958,0.002643,0.004593
13.926963,0.002622,0.004557
13.936968,0.002601,0.004521
13.946973,0.002581,0.004485
13.956978,0.00256,0.004449
13.966983,0.002539,0.004412
13.976988,0.002518,0.004376
13.986993,0.002496,0.004339
13.996998,0.002475,0.004302
14.007004,0.002454,0.004265
14.017009,0.002432,0.004227
14.027014,0.002411,0.00419
14.037019,0.002389,0.004152
14.047024,0.002367,0.004114
14.057029,0.002345,0.004077
14.067034,0.002323,0.004038
14.077039,0.002301,0.004
14.087044,0.002279,0.003962
14.097049,0.002257,0.003923
14.107054,0.002235,0.003884
14.117059,0.002212,0.003845
14.127064,0.00219,0.003806
14.137069,0.002167,0.003767
14.147074,0.002145,0.003728
14.157079,0.002122,0.003688
14.167084,0.002099,0.003648
14.177089,0.002076,0.003609
14.187094,0.002053,0.003569
14.197099,0.00203,0.003528
14.207104,0.002007,0.003488
14.217109,0.001984,0.003448
14.227114,0.00196,0.003407
14.237119,0.001937,0.003367
14.247124,0.001914,0.003326
14.257129,0.00189,0.003285
14.267134,0.001866,0.003244
14.277139,0.001843,0.003203
14.287144,0.001819,0.003161
14.297149,0.001795,0.00312
14.307154,0.001771,0.003078
14.317159,0.001747,0.003037
14.327164,0.001723,0.002995
14.337169,0.001699,0.002953
14.347174,0.001675,0.002911
14.357179,0.001651,0.002869
14.367184,0.001626,0.002827
14.377189,0.001602,0.002784
14.387194,0.001577,0.002742
14.397199,0.001553,0.002699
14.407204,0.001528,0.002657
14.417209,0.001504,0.002614
14.427214,0.001479,0.002571
14.437219,0.001454,0.002528
14.447224,0.00143,0.002485
14.457229,0.001405,0.002442
14.467234,0.00138,0.002398
14.477239,0.001355,0.002355
14.487244,0.00133,0.002311
14.497249,0.001305,0.002268
14.507254,0.00128,0.002224
14.517259,0.001254,0.00218
14.527264,0.001229,0.002137
14.537269,0.001204,0.002093
14.547274,0.001179,0.002049
14.557279,0.001153,0.002005
14.567284,0.001128,0.00196
14.577289,0.001102,0.001916
14.587294,0.001077,0.001872
14.597299,0.001051,0.001827
14.607304,0.001026,0.001783
14.617309,0.001,0.001738
14.627314,0.000975,0.001694
14.637319,0.000949,0.001649
14.647324,0.000923,0.001604
14.657329,0.000897,0.00156
14.667334,0.000872,0.001515
14.677339,0.000846,0.00147
14.687344,0.00082,0.001425
14.697349,0.000794,0.00138
14.707354,0.000768,0.001335
14.717359,0.000742,0.00129
14.727364,0.000716,0.001244
14.737369,0.00069,0.001199
14.747374,0.000664,0.001154
14.757379,0.000638,0.001109
14.767384,0.000612,0.001063
14.777389,0.000586,0.001018
14.787394,0.000559,0.000972
14.797399,0.000533,0.000927
14.807404,0.000507,0.000881
14.817409,0.000481,0.000836
14.827414,0.000455,0.00079
14.837419,0.000428,0.000744
14.847424,0.000402,0.000699
14.857429,0.000376,0.000653
14.867434,0.000349,0.000607
14.877439,0.000323,0.000562
14.887444,0.000297,0.000516
14.897449,0.00027,0.00047
14.907454,0.000244,0.000424
14.917459,0.000218,0.000378
14.927464,0.000191,0.000333
14.937469,0.000165,0.000287
14.947474,0.000139,0.000241
14.957479,0.000112,0.000195
14.967484,8.6e-05,0.000149
14.977489,5.9e-05,0.000103
14.987494,3.3e-05,5.7e-05
14.997499,7e-06,1.1e-05
15.007504,-2e-05,-3.4e-05
15.017509,-4.6e-05,-8e-05
15.027514,-7.3e-05,-0.000126
15.037519,-9.9e-05,-0.000172
15.047524,-0.000125,-0.000218
15.057529,-0.000152,-0.000264
15.067534,-0.000178,-0.00031
15.077539,-0.000205,-0.000356
15.087544,-0.000231,-0.000401
15.097549,-0.000257,-0.000447
15.107554,-0.000284,-0.000493
15.117559,-0.00031,-0.000539
15.127564,-0.000336,-0.000584
15.137569,-0.000363,-0.00063
15.147574,-0.000389,-0.000676
15.157579,-0.000415,-0.000722
15.167584,-0.000441,-0.000767
15.177589,-0.000468,-0.000813
15.187594,-0.000494,-0.000858
15.197599,-0.00052,-0.000904
15.207604,-0.000546,-0.00095
15.217609,-0.000572,-0.000995
15.227614,-0.000599,-0.00104
15.237619,-0.000625,-0.001086
15.247624,-0.000651,-0.001131
15.257629,-0.000677,-0.001177
15.267634,-0.000703,-0.001222
15.277639,-0.000729,-0.001267
15.287644,-0.000755,-0.001312
15.297649,-0.000781,-0.001357
15.307654,-0.000807,-0.001402
15.317659,-0.000833,-0.001447
15.327664,-0.000859,-0.001492
15.337669,-0.000884,-0.001537
15.347674,-0.00091,-0.001582
15.357679,-0.000936,-0.001627
15.367684,-0.000962,-0.001672
15.377689,-0.000987,-0.001716
15.387694,-0.001013,-0.001761
15.397699,-0.001039,-0.001805
15.407704,-0.001064,-0.00185
15.417709,-0.00109,-0.001894
15.427714,-0.001115,-0.001938
15.437719,-0.001141,-0.001982
15.447724,-0.001166,-0.002027
15.457729,-0.001191,-0.002071
15.467734,-0.001217,-0.002115
15.477739,-0.001242,-0.002158
15.487744,-0.001267,-0.002202
15.497749,-0.001292,-0.002246
15.507754,-0.001317,-0.00229
15.517759,-0.001342,-0.002333
15.527764,-0.001367,-0.002377
15.537769,-0.001392,-0.00242
15.547774,-0.001417,-0.002463
15.557779,-0.001442,-0.002506
15.567784,-0.001467,-0.002549
15.577789,-0.001491,-0.002592
15.587794,-0.001516,-0.002635
15.597799,-0.001541,-0.002678
15.607804,-0.001565,-0.002721
15.617809,-0.00159,-0.002763
15.627814,-0.001614,-0.002806
15.637819,-0.001638,-0.002848
15.647824,-0.001663,-0.00289
15.657829,-0.001687,-0.002932
15.667834,-0.001711,-0.002974
15.677839,-0.001735,-0.003016
15.687844,-0.001759,-0.003058
15.697849,-0.001783,-0.003099
15.707854,-0.001807,-0.003141
15.717859,-0.001831,-0.003182
15.727864,-0.001855,-0.003223
15.737869,-0.001878,-0.003264
15.747874,-0.001902,-0.003305
15.757879,-0.001925,-0.003346
15.767884,-0.001949,-0.003387
15.777889,-0.001972,-0.003428
15.787894,-0.001995,-0.003468
15.797899,-0.002019,-0.003508
15.807904,-0.002042,-0.003549
15.817909,-0.002065,-0.003589
15.827914,-0.002088,-0.003628
15.837919,-0.00211,-0.003668
15.847924,-0.002133,-0.003708
15.857929,-0.002156,-0.003747
15.867934,-0.002179,-0.003787
15.877939,-0.002201,-0.003826
15.887944,-0.002224,-0.003865
15.897949,-0.002246,-0.003904
15.907954,-0.002268,-0.003942
15.917959,-0.00229,-0.003981
15.927964,-0.002312,-0.004019
15.937969,-0.002334,-0.004057
15.947974,-0.002356,-0.004096
15.957979,-0.002378,-0.004133
15.967984,-0.0024,-0.004171
15.977989,-0.002421,-0.004209
15.987994,-0.002443,-0.004246
15.997999,-0.002464,-0.004283
16.008004,-0.002486,-0.00432
16.018009,-0.002507,-0.004357
16.028014,-0.002528,-0.004394
16.038019,-0.002549,-0.004431
16.048024,-0.00257,-0.004467
16.058029,-0.002591,-0.004503
16.068034,-0.002612,-0.004539
16.078039,-0.002632,-0.004575
16.088044,-0.002653,-0.004611
16.098049,-0.002673,-0.004646
16.108054,-0.002694,-0.004682
16.118059,-0.002714,-0.004717
16.128064,-0.002734,-0.004752
16.138069,-0.002754,-0.004786
16.148074,-0.002774,-0.004821
16.158079,-0.002793,-0.004855
16.168084,-0.002813,-0.004889
16.178089,-0.002833,-0.004923
16.188094,-0.002852,-0.004957
16.198099,-0.002871,-0.004991
16.208104,-0.002891,-0.005024
16.218109,-0.00291,-0.005057
16.228114,-0.002929,-0.00509
16.238119,-0.002948,-0.005123
16.248124,-0.002966,-0.005156
16.258129,-0.002985,-0.005188
16.268134,-0.003003,-0.00522
16.278139,-0.003022,-0.005252
16.288144,-0.00304,-0.005284
16.298149,-0.003058,-0.005316
16.308154,-0.003076,-0.005347
16.318159,-0.003094,-0.005378
16.328164,-0.003112,-0.005409
16.338169,-0.00313,-0.00544
16.348174,-0.003147,-0.00547
16.358179,-0.003165,-0.005501
16.368184,-0.003182,-0.005531
16.378189,-0.003199,-0.00556
16.388194,-0.003216,-0.00559
16.398199,-0.003233,-0.005619
16.408204,-0.00325,-0.005649
16.418209,-0.003267,-0.005678
16.428214,-0.003283,-0.005706
16.438219,-0.0033,-0.005735
16.448224,-0.003316,-0.005763
16.458229,-0.003332,-0.005791
16.468234,-0.003348,-0.005819
16.478239,-0.003364,-0.005847
16.488244,-0.00338,-0.005874
16.498249,-0.003395,-0.005901
16.508254,-0.003411,-0.005928
16.518259,-0.003426,-0.005955
16.528264,-0.003441,-0.005981
16.538269,-0.003456,-0.006007
16.548274,-0.003471,-0.006033
16.558279,-0.003486,-0.006059
16.568284,-0.003501,-0.006084
16.578289,-0.003515,-0.00611
16.588294,-0.00353,-0.006135
16.598299,-0.003544,-0.006159
16.608304,-0.003558,-0.006184
16.618309,-0.003572,-0.006208
16.628314,-0.003586,-0.006232
16.638319,-0.003599,-0.006256
16.648324,-0.003613,-0.00628
16.658329,-0.003626,-0.006303
16.668334,-0.00364,-0.006326
16.678339,-0.003653,-0.006349
16.688344,-0.003666,-0.006371
16.698349,-0.003678,-0.006393
16.708354,-0.003691,-0.006415
16.718359,-0.003704,-0.006437
16.728364,-0.003716,-0.006459
16.738369,-0.003728,-0.00648
16.748374,-0.00374,-0.006501
16.758379,-0.003752,-0.006522
16.768384,-0.003764,-0.006542
16.778389,-0.003776,-0.006562
16.788394,-0.003787,-0.006582
16.798399,-0.003798,-0.006602
16.808404,-0.00381,-0.006622
16.818409,-0.003821,-0.006641
16.828414,-0.003832,-0.00666
16.838419,-0.003842,-0.006678
16.848424,-0.003853,-0.006697
16.858429,-0.003863,-0.006715
16.868434,-0.003874,-0.006733
16.878439,-0.003884,-0.00675
16.888444,-0.003894,-0.006768
16.898449,-0.003904,-0.006785
16.908454,-0.003913,-0.006802
16.918459,-0.003923,-0.006818
16.928464,-0.003932,-0.006834
16.938469,-0.003941,-0.00685
16.948474,-0.00395,-0.006866
16.958479,-0.003959,-0.006882
16.968484,-0.003968,-0.006897
16.978489,-0.003977,-0.006912
16.988494,-0.003985,-0.006926
16.998499,-0.003993,-0.006941
17.008504,-0.004001,-0.006955
17.018509,-0.004009,-0.006968
17.028514,-0.004017,-0.006982
17.038519,-0.004025,-0.006995
17.048524,-0.004032,-0.007008
17.058529,-0.004039,-0.007021
17.068534,-0.004047,-0.007033
17.078539,-0.004054,-0.007046
17.088544,-0.00406,-0.007057
17.098549,-0.004067,-0.007069
17.108554,-0.004074,-0.00708
17.118559,-0.00408,-0.007091
17.128564,-0.004086,-0.007102
17.138569,-0.004092,-0.007113
17.148574,-0.004098,-0.007123
17.158579,-0.004104,-0.007133
17.168584,-0.004109,-0.007142
17.178589,-0.004115,-0.007152
17.188594,-0.00412,-0.007161
17.198599,-0.004125,-0.007169
17.208604,-0.00413,-0.007178
17.218609,-0.004135,-0.007186
17.228614,-0.004139,-0.007194
17.238619,-0.004143,-0.007202
17.248624,-0.004148,-0.007209
17.258629,-0.004152,-0.007216
17.268634,-0.004156,-0.007223
17.278639,-0.004159,-0.00723
17.288644,-0.004163,-0.007236
17.298649,-0.004166,-0.007242
17.308654,-0.00417,-0.007247
17.318659,-0.004173,-0.007253
17.328664,-0.004176,-0.007258
17.338669,-0.004178,-0.007263
17.348674,-0.004181,-0.007267
17.358679,-0.004183,-0.007271
17.368684,-0.004186,-0.007275
17.378689,-0.004188,-0.007279
17.388694,-0.00419,-0.007282
17.398699,-0.004191,-0.007285
17.408704,-0.004193,-0.007288
17.418709,-0.004195,-0.00729
17.428714,-0.004196,-0.007293
17.438719,-0.004197,-0.007295
17.448724,-0.004198,-0.007296
17.458729,-0.004199,-0.007298
17.468734,-0.004199,-0.007299
17.478739,-0.0042,-0.007299
17.488744,-0.0042,-0.0073
17.498749,-0.0042,-0.0073
17.508754,-0.0042,-0.0073
17.518759,-0.0042,-0.007299
17.528764,-0.004199,-0.007299
17.538769,-0.004199,-0.007298
17.548774,-0.004198,-0.007297
17.558779,-0.004197,-0.007295
17.568784,-0.004196,-0.007293
17.578789,-0.004195,-0.007291
17.588794,-0.004193,-0.007289
17.598799,-0.004192,-0.007286
17.608804,-0.00419,-0.007283
17.618809,-0.004188,-0.00728
17.628814,-0.004186,-0.007276
17.638819,-0.004184,-0.007272
17.648824,-0.004182,-0.007268
17.658829,-0.004179,-0.007264
17.668834,-0.004176,-0.007259
17.678839,-0.004174,-0.007254
17.688844,-0.00417,-0.007249
17.698849,-0.004167,-0.007243
17.708854,-0.004164,-0.007237
17.718859,-0.00416,-0.007231
17.728864,-0.004157,-0.007225
17.738869,-0.004153,-0.007218
17.748874,-0.004149,-0.007211
17.758879,-0.004145,-0.007204
17.768884,-0.00414,-0.007196
17.778889,-0.004136,-0.007188
17.788894,-0.004131,-0.00718
17.798899,-0.004126,-0.007172
17.808904,-0.004121,-0.007163
17.818909,-0.004116,-0.007154
17.828914,-0.004111,-0.007145
17.838919,-0.004105,-0.007135
17.848924,-0.004099,-0.007125
17.858929,-0.004094,-0.007115
17.868934,-0.004088,-0.007105
17.878939,-0.004082,-0.007094
17.888944,-0.004075,-0.007083
17.898949,-0.004069,-0.007072
17.908954,-0.004062,-0.00706
17.918959,-0.004055,-0.007049
17.928964,-0.004048,-0.007036
17.938969,-0.004041,-0.007024
17.948974,-0.004034,-0.007011
17.958979,-0.004027,-0.006999
17.968984,-0.004019,-0.006985
17.978989,-0.004011,-0.006972
17.988994,-0.004003,-0.006958
17.998999,-0.003995,-0.006944
18.009005,-0.003987,-0.00693
18.01901,-0.003979,-0.006915
18.029015,-0.00397,-0.0069
18.03902,-0.003961,-0.006885
18.049025,-0.003953,-0.00687
18.05903,-0.003944,-0.006854
18.069035,-0.003934,-0.006838
18.07904,-0.003925,-0.006822
18.089045,-0.003916,-0.006806
18.09905,-0.003906,-0.006789
18.109055,-0.003896,-0.006772
18.11906,-0.003886,-0.006755
18.129065,-0.003876,-0.006737
18.13907,-0.003866,-0.006719
18.149075,-0.003856,-0.006701
18.15908,-0.003845,-0.006683
18.169085,-0.003834,-0.006664
18.17909,-0.003823,-0.006646
18.189095,-0.003812,-0.006626
18.1991,-0.003801,-0.006607
18.209105,-0.00379,-0.006587
18.21911,-0.003779,-0.006567
18.229115,-0.003767,-0.006547
18.23912,-0.003755,-0.006527
18.249125,-0.003743,-0.006506
18.25913,-0.003731,-0.006485
18.269135,-0.003719,-0.006464
18.27914,-0.003707,-0.006443
18.289145,-0.003694,-0.006421
18.29915,-0.003682,-0.006399
18.309155,-0.003669,-0.006377
18.31916,-0.003656,-0.006354
18.329165,-0.003643,-0.006332
18.33917,-0.00363,-0.006309
18.349175,-0.003616,-0.006285
18.35918,-0.003603,-0.006262
18.369185,-0.003589,-0.006238
18.37919,-0.003575,-0.006214
18.389195,-0.003561,-0.00619
18.3992,-0.003547,-0.006166
18.409205,-0.003533,-0.006141
18.41921,-0.003519,-0.006116
18.429215,-0.003504,-0.006091
18.43922,-0.00349,-0.006065
18.449225,-0.003475,-0.00604
18.45923,-0.00346,-0.006014
18.469235,-0.003445,-0.005988
18.47924,-0.00343,-0.005961
18.489245,-0.003414,-0.005935
18.49925,-0.003399,-0.005908
18.509255,-0.003383,-0.005881
18.51926,-0.003368,-0.005853
18.529265,-0.003352,-0.005826
18.53927,-0.003336,-0.005798
18.549275,-0.00332,-0.00577
18.55928,-0.003304,-0.005742
18.569285,-0.003287,-0.005713
18.57929,-0.003271,-0.005685
18.589295,-0.003254,-0.005656
18.5993,-0.003237,-0.005627
18.609305,-0.00322,-0.005597
18.61931,-0.003203,-0.005568
18.629315,-0.003186,-0.005538
18.63932,-0.003169,-0.005508
18.649325,-0.003152,-0.005478
18.65933,-0.003134,-0.005447
18.669335,-0.003116,-0.005417
18.67934,-0.003099,-0.005386
18.689345,-0.003081,-0.005355
18.69935,-0.003063,-0.005324
18.709355,-0.003045,-0.005292
18.71936,-0.003026,-0.00526
18.729365,-0.003008,-0.005228
18.73937,-0.00299,-0.005196
18.749375,-0.002971,-0.005164
18.75938,-0.002952,-0.005131
18.769385,-0.002933,-0.005099
18.77939,-0.002915,-0.005066
18.789395,-0.002895,-0.005033
18.7994,-0.002876,-0.004999
18.809405,-0.002857,-0.004966
18.81941,-0.002838,-0.004932
18.829415,-0.002818,-0.004898
18.83942,-0.002798,-0.004864
18.849425,-0.002779,-0.00483
18.85943,-0.002759,-0.004795
18.869435,-0.002739,-0.00476
18.87944,-0.002719,-0.004725
18.889445,-0.002699,-0.00469
18.89945,-0.002678,-0.004655
18.909455,-0.002658,-0.00462
18.91946,-0.002637,-0.004584
18.929465,-0.002617,-0.004548
18.93947,-0.002596,-0.004512
18.949475,-0.002575,-0.004476
18.95948,-0.002554,-0.00444
18.969485,-0.002533,-0.004403
18.97949,-0.002512,-0.004367
18.989495,-0.002491,-0.00433
18.9995,-0.00247,-0.004293
19.009505,-0.002448,-0.004255
19.01951,-0.002427,-0.004218
19.029515,-0.002405,-0.004181
19.03952,-0.002384,-0.004143
19.049525,-0.002362,-0.004105
19.05953,-0.00234,-0.004067
19.069535,-0.002318,-0.004029
19.07954,-0.002296,-0.00399
19.089545,-0.002274,-0.003952
19.09955,-0.002251,-0.003913
19.109555,-0.002229,-0.003874
19.11956,-0.002207,-0.003835
19.129565,-0.002184,-0.003796
19.13957,-0.002162,-0.003757
19.149575,-0.002139,-0.003718
19.15958,-0.002116,-0.003678
19.169585,-0.002093,-0.003638
19.17959,-0.00207,-0.003599
19.189595,-0.002047,-0.003559
19.1996,-0.002024,-0.003518
19.209605,-0.002001,-0.003478
19.21961,-0.001978,-0.003438
19.229615,-0.001955,-0.003397
19.23962,-0.001931,-0.003356
19.249625,-0.001908,-0.003316
19.25963,-0.001884,-0.003275
19.269635,-0.00186,-0.003234
19.27964,-0.001837,-0.003192
19.289645,-0.001813,-0.003151
19.29965,-0.001789,-0.00311
19.309655,-0.001765,-0.003068
19.31966,-0.001741,-0.003026
19.329665,-0.001717,-0.002985
19.33967,-0.001693,-0.002943
19.349675,-0.001669,-0.002901
19.35968,-0.001645,-0.002858
19.369685,-0.00162,-0.002816
19.37969,-0.001596,-0.002774
19.389695,-0.001571,-0.002731
19.3997,-0.001547,-0.002689
19.409705,-0.001522,-0.002646
19.41971,-0.001498,-0.002603
19.429715,-0.001473,-0.00256
19.43972,-0.001448,-0.002517
19.449725,-0.001423,-0.002474
19.45973,-0.001399,-0.002431
19.469735,-0.001374,-0.002387
19.47974,-0.001349,-0.002344
19.489745,-0.001324,-0.002301
19.49975,-0.001298,-0.002257
19.509755,-0.001273,-0.002213
19.51976,-0.001248,-0.002169
19.529765,-0.001223,-0.002126
19.53977,-0.001198,-0.002082
19.549775,-0.001172,-0.002038
19.55978,-0.001147,-0.001994
19.569785,-0.001122,-0.001949
19.57979,-0.001096,-0.001905
19.589795,-0.001071,-0.001861
19.5998,-0.001045,-0.001816
19.609805,-0.001019,-0.001772
19.61981,-0.000994,-0.001727
19.629815,-0.000968,-0.001683
19.63982,-0.000942,-0.001638
19.649825,-0.000917,-0.001593
19.65983,-0.000891,-0.001548
19.669835,-0.000865,-0.001504
19.67984,-0.000839,-0.001459
19.689845,-0.000813,-0.001414
19.69985,-0.000787,-0.001369
19.709855,-0.000761,-0.001323
19.71986,-0.000735,-0.001278
19.729865,-0.000709,-0.001233
19.73987,-0.000683,-0.001188
19.749875,-0.000657,-0.001143
19.75988,-0.000631,-0.001097
19.769885,-0.000605,-0.001052
19.77989,-0.000579,-0.001006
19.789895,-0.000553,-0.000961
19.7999,-0.000527,-0.000915
19.809905,-0.0005,-0.00087
19.81991,-0.000474,-0.000824
19.829915,-0.000448,-0.000779
19.83992,-0.000422,-0.000733
19.849925,-0.000395,-0.000687
19.85993,-0.000369,-0.000642
19.869935,-0.000343,-0.000596
19.87994,-0.000317,-0.00055
19.889945,-0.00029,-0.000504
19.89995,-0.000264,-0.000459
19.909955,-0.000237,-0.000413
19.91996,-0.000211,-0.000367
19.929965,-0.000185,-0.000321
19.93997,-0.000158,-0.000275
19.949975,-0.000132,-0.000229
19.95998,-0.000106,-0.000184
19.969985,-7.9e-05,-0.000138
19.97999,-5.3e-05,-9.2e-05
19.989995,-2.6e-05,-4.6e-05
20.0,-0.0,-0.0
