Time (s),Normal Strain,Shear Strain
0,0,0
0.010005,1.8e-05,3.1e-05
0.02001,3.5e-05,6.2e-05
0.030015,5.3e-05,9.2e-05
0.04002,7e-05,0.000123
0.050025,8.8e-05,0.000154
0.06003,0.000106,0.000185
0.070035,0.000123,0.000216
0.08004,0.000141,0.000246
0.090045,0.000158,0.000277
0.10005,0.000176,0.000308
0.110055,0.000193,0.000339
0.12006,0.000211,0.000369
0.130065,0.000229,0.0004
0.14007,0.000246,0.000431
0.150075,0.000264,0.000461
0.16008,0.000281,0.000492
0.170085,0.000299,0.000523
0.18009,0.000316,0.000553
0.190095,0.000334,0.000584
0.2001,0.000351,0.000614
0.210105,0.000369,0.000645
0.22011,0.000386,0.000676
0.230115,0.000403,0.000706
0.24012,0.000421,0.000736
0.250125,0.000438,0.000767
0.26013,0.000456,0.000797
0.270135,0.000473,0.000828
0.28014,0.00049,0.000858
0.290145,0.000508,0.000888
0.30015,0.000525,0.000919
0.310155,0.000542,0.000949
0.32016,0.000559,0.000979
0.330165,0.000577,0.001009
0.34017,0.000594,0.001039
0.350175,0.000611,0.001069
0.36018,0.000628,0.001099
0.370185,0.000645,0.001129
0.38019,0.000663,0.001159
0.390195,0.00068,0.001189
0.4002,0.000697,0.001219
0.410205,0.000714,0.001249
0.42021,0.000731,0.001279
0.430215,0.000748,0.001308
0.44022,0.000765,0.001338
0.450225,0.000782,0.001368
0.46023,0.000798,0.001397
0.470235,0.000815,0.001427
0.48024,0.000832,0.001456
0.490245,0.000849,0.001486
0.50025,0.000866,0.001515
0.510255,0.000882,0.001544
0.52026,0.000899,0.001573
0.530265,0.000916,0.001603
0.54027,0.000932,0.001632
0.550275,0.000949,0.001661
0.56028,0.000965,0.00169
0.570285,0.000982,0.001718
0.58029,0.000998,0.001747
0.590295,0.001015,0.001776
0.6003,0.001031,0.001805
0.610305,0.001048,0.001833
0.62031,0.001064,0.001862
0.630315,0.00108,0.00189
0.64032,0.001096,0.001919
0.650325,0.001113,0.001947
0.66033,0.001129,0.001975
0.670335,0.001145,0.002003
0.68034,0.001161,0.002031
0.690345,0.001177,0.002059
0.70035,0.001193,0.002087
0.710355,0.001209,0.002115
0.72036,0.001224,0.002143
0.730365,0.00124,0.002171
0.74037,0.001256,0.002198
0.750375,0.001272,0.002226
0.76038,0.001287,0.002253
0.770385,0.001303,0.00228
0.78039,0.001319,0.002308
0.790395,0.001334,0.002335
0.8004,0.00135,0.002362
0.810405,0.001365,0.002389
0.82041,0.00138,0.002415
0.830415,0.001396,0.002442
0.84042,0.001411,0.002469
0.850425,0.001426,0.002495
0.86043,0.001441,0.002522
0.870435,0.001456,0.002548
0.88044,0.001471,0.002575
0.890445,0.001486,0.002601
0.90045,0.001501,0.002627
0.910455,0.001516,0.002653
0.92046,0.001531,0.002679
0.930465,0.001545,0.002704
0.94047,0.00156,0.00273
0.950475,0.001575,0.002755
0.96048,0.001589,0.002781
0.970485,0.001604,0.002806
0.98049,0.001618,0.002831
0.990495,0.001632,0.002856
1.0005,0.001647,0.002881
1.010505,0.001661,0.002906
1.02051,0.001675,0.002931
1.030515,0.001689,0.002956
1.04052,0.001703,0.00298
1.050525,0.001717,0.003005
1.06053,0.001731,0.003029
1.070535,0.001745,0.003053
1.08054,0.001758,0.003077
1.090545,0.001772,0.003101
1.10055,0.001786,0.003125
1.110555,0.001799,0.003148
1.12056,0.001813,0.003172
1.130565,0.001826,0.003195
1.14057,0.001839,0.003219
1.150575,0.001852,0.003242
1.16058,0.001866,0.003265
1.170585,0.001879,0.003288
1.18059,0.001892,0.00331
1.190595,0.001905,0.003333
1.2006,0.001918,0.003356
1.210605,0.00193,0.003378
1.22061,0.001943,0.0034
1.230615,0.001956,0.003422
1.24062,0.001968,0.003444
1.250625,0.001981,0.003466
1.26063,0.001993,0.003488
1.270635,0.002005,0.003509
1.28064,0.002018,0.003531
1.290645,0.00203,0.003552
1.30065,0.002042,0.003573
1.310655,0.002054,0.003594
1.32066,0.002066,0.003615
1.330665,0.002078,0.003636
1.34067,0.002089,0.003656
1.350675,0.002101,0.003677
1.36068,0.002113,0.003697
1.370685,0.002124,0.003717
1.38069,0.002136,0.003737
1.390695,0.002147,0.003757
1.4007,0.002158,0.003777
1.410705,0.002169,0.003796
1.42071,0.00218,0.003816
1.430715,0.002191,0.003835
1.44072,0.002202,0.003854
1.450725,0.002213,0.003873
1.46073,0.002224,0.003892
1.470735,0.002235,0.003911
1.48074,0.002245,0.003929
1.490745,0.002256,0.003947
1.50075,0.002266,0.003966
1.510755,0.002276,0.003984
1.52076,0.002287,0.004001
1.530765,0.002297,0.004019
1.54077,0.002307,0.004037
1.550775,0.002317,0.004054
1.56078,0.002326,0.004071
1.570785,0.002336,0.004088
1.58079,0.002346,0.004105
1.590795,0.002355,0.004122
1.6008,0.002365,0.004139
1.610805,0.002374,0.004155
1.62081,0.002384,0.004171
1.630815,0.002393,0.004187
1.64082,0.002402,0.004203
1.650825,0.002411,0.004219
1.66083,0.00242,0.004235
1.670835,0.002429,0.00425
1.68084,0.002437,0.004265
1.690845,0.002446,0.00428
1.70085,0.002454,0.004295
1.710855,0.002463,0.00431
1.72086,0.002471,0.004324
1.730865,0.002479,0.004339
1.74087,0.002487,0.004353
1.750875,0.002496,0.004367
1.76088,0.002503,0.004381
1.770885,0.002511,0.004395
1.78089,0.002519,0.004408
1.790895,0.002527,0.004422
1.8009,0.002534,0.004435
1.810905,0.002542,0.004448
1.82091,0.002549,0.004461
1.830915,0.002556,0.004473
1.84092,0.002563,0.004486
1.850925,0.00257,0.004498
1.86093,0.002577,0.00451
1.870935,0.002584,0.004522
1.88094,0.002591,0.004534
1.890945,0.002597,0.004546
1.90095,0.002604,0.004557
1.910955,0.00261,0.004568
1.92096,0.002617,0.004579
1.930965,0.002623,0.00459
1.94097,0.002629,0.004601
1.950975,0.002635,0.004611
1.96098,0.002641,0.004622
1.970985,0.002647,0.004632
1.98099,0.002652,0.004642
1.990995,0.002658,0.004652
2.001001,0.002664,0.004661
2.011006,0.002669,0.004671
2.021011,0.002674,0.00468
2.031016,0.002679,0.004689
2.041021,0.002684,0.004698
2.051026,0.002689,0.004706
2.061031,0.002694,0.004715
2.071036,0.002699,0.004723
2.081041,0.002704,0.004731
2.091046,0.002708,0.004739
2.101051,0.002712,0.004747
2.111056,0.002717,0.004754
2.121061,0.002721,0.004762
2.131066,0.002725,0.004769
2.141071,0.002729,0.004776
2.151076,0.002733,0.004783
2.161081,0.002737,0.004789
2.171086,0.00274,0.004796
2.181091,0.002744,0.004802
2.191096,0.002747,0.004808
2.201101,0.002751,0.004814
2.211106,0.002754,0.004819
2.221111,0.002757,0.004825
2.231116,0.00276,0.00483
2.241121,0.002763,0.004835
2.251126,0.002766,0.00484
2.261131,0.002769,0.004845
2.271136,0.002771,0.004849
2.281141,0.002774,0.004854
2.291146,0.002776,0.004858
2.301151,0.002778,0.004862
2.311156,0.00278,0.004866
2.321161,0.002782,0.004869
2.331166,0.002784,0.004872
2.341171,0.002786,0.004876
2.351176,0.002788,0.004879
2.361181,0.002789,0.004881
2.371186,0.002791,0.004884
2.381191,0.002792,0.004886
2.391196,0.002793,0.004889
2.401201,0.002795,0.004891
2.411206,0.002796,0.004892
2.421211,0.002797,0.004894
2.431216,0.002797,0.004895
2.441221,0.002798,0.004897
2.451226,0.002799,0.004898
2.461231,0.002799,0.004899
2.471236,0.0028,0.004899
2.481241,0.0028,0.0049
2.491246,0.0028,0.0049
2.501251,0.0028,0.0049
2.511256,0.0028,0.0049
2.521261,0.0028,0.0049
2.531266,0.002799,0.004899
2.541271,0.002799,0.004898
2.551276,0.002799,0.004897
2.561281,0.002798,0.004896
2.571286,0.002797,0.004895
2.581291,0.002796,0.004894
2.591296,0.002795,0.004892
2.601301,0.002794,0.00489
2.611306,0.002793,0.004888
2.621311,0.002792,0.004886
2.631316,0.00279,0.004883
2.641321,0.002789,0.004881
2.651326,0.002787,0.004878
2.661331,0.002786,0.004875
2.671336,0.002784,0.004872
2.681341,0.002782,0.004868
2.691346,0.00278,0.004865
2.701351,0.002778,0.004861
2.711356,0.002775,0.004857
2.721361,0.002773,0.004853
2.731366,0.00277,0.004848
2.741371,0.002768,0.004844
2.751376,0.002765,0.004839
2.761381,0.002762,0.004834
2.771386,0.002759,0.004829
2.781391,0.002756,0.004824
2.791396,0.002753,0.004818
2.801401,0.00275,0.004812
2.811406,0.002747,0.004807
2.821411,0.002743,0.0048
2.831416,0.00274,0.004794
2.841421,0.002736,0.004788
2.851426,0.002732,0.004781
2.861431,0.002728,0.004774
2.871436,0.002724,0.004767
2.881441,0.00272,0.00476
2.891446,0.002716,0.004753
2.901451,0.002711,0.004745
2.911456,0.002707,0.004737
2.921461,0.002702,0.004729
2.931466,0.002698,0.004721
2.941471,0.002693,0.004713
2.951476,0.002688,0.004704
2.961481,0.002683,0.004695
2.971486,0.002678,0.004687
2.981491,0.002673,0.004677
2.991496,0.002668,0.004668
3.001501,0.002662,0.004659
3.011506,0.002657,0.004649
3.021511,0.002651,0.004639
3.031516,0.002645,0.004629
3.041521,0.002639,0.004619
3.051526,0.002634,0.004609
3.061531,0.002628,0.004598
3.071536,0.002621,0.004587
3.081541,0.002615,0.004577
3.091546,0.002609,0.004565
3.101551,0.002602,0.004554
3.111556,0.002596,0.004543
3.121561,0.002589,0.004531
3.131566,0.002582,0.004519
3.141571,0.002576,0.004507
3.151576,0.002569,0.004495
3.161581,0.002562,0.004483
3.171586,0.002554,0.00447
3.181591,0.002547,0.004457
3.191596,0.00254,0.004445
3.201601,0.002532,0.004432
3.211606,0.002525,0.004418
3.221611,0.002517,0.004405
3.231616,0.002509,0.004391
3.241621,0.002501,0.004378
3.251626,0.002494,0.004364
3.261631,0.002485,0.00435
3.271636,0.002477,0.004335
3.281641,0.002469,0.004321
3.291646,0.002461,0.004306
3.301651,0.002452,0.004291
3.311656,0.002444,0.004276
3.321661,0.002435,0.004261
3.331666,0.002426,0.004246
3.341671,0.002418,0.004231
3.351676,0.002409,0.004215
3.361681,0.0024,0.004199
3.371686,0.00239,0.004183
3.381691,0.002381,0.004167
3.391696,0.002372,0.004151
3.401701,0.002363,0.004134
3.411706,0.002353,0.004118
3.421711,0.002343,0.004101
3.431716,0.002334,0.004084
3.441721,0.002324,0.004067
3.451726,0.002314,0.00405
3.461731,0.002304,0.004032
3.471736,0.002294,0.004015
3.481741,0.002284,0.003997
3.491746,0.002274,0.003979
3.501751,0.002263,0.003961
3.511756,0.002253,0.003943
3.521761,0.002243,0.003924
3.531766,0.002232,0.003906
3.541771,0.002221,0.003887
3.551776,0.002211,0.003868
3.561781,0.0022,0.003849
3.571786,0.002189,0.00383
3.581791,0.002178,0.003811
3.591796,0.002167,0.003792
3.601801,0.002155,0.003772
3.611806,0.002144,0.003752
3.621811,0.002133,0.003732
3.631816,0.002121,0.003712
3.641821,0.00211,0.003692
3.651826,0.002098,0.003672
3.661831,0.002086,0.003651
3.671836,0.002075,0.003631
3.681841,0.002063,0.00361
3.691846,0.002051,0.003589
3.701851,0.002039,0.003568
3.711856,0.002027,0.003547
3.721861,0.002015,0.003526
3.731866,0.002002,0.003504
3.741871,0.00199,0.003482
3.751876,0.001978,0.003461
3.761881,0.001965,0.003439
3.771886,0.001952,0.003417
3.781891,0.00194,0.003395
3.791896,0.001927,0.003372
3.801901,0.001914,0.00335
3.811906,0.001901,0.003327
3.821911,0.001888,0.003305
3.831916,0.001875,0.003282
3.841921,0.001862,0.003259
3.851926,0.001849,0.003236
3.861931,0.001836,0.003213
3.871936,0.001823,0.003189
3.881941,0.001809,0.003166
3.891946,0.001796,0.003142
3.901951,0.001782,0.003119
3.911956,0.001769,0.003095
3.921961,0.001755,0.003071
3.931966,0.001741,0.003047
3.941971,0.001727,0.003023
3.951976,0.001713,0.002998
3.961981,0.001699,0.002974
3.971986,0.001685,0.002949
3.981991,0.001671,0.002925
3.991996,0.001657,0.0029
4.002001,0.001643,0.002875
4.012006,0.001629,0.00285
4.022011,0.001614,0.002825
4.032016,0.0016,0.0028
4.042021,0.001585,0.002774
4.052026,0.001571,0.002749
4.062031,0.001556,0.002723
4.072036,0.001542,0.002698
4.082041,0.001527,0.002672
4.092046,0.001512,0.002646
4.102051,0.001497,0.00262
4.112056,0.001482,0.002594
4.122061,0.001467,0.002568
4.132066,0.001452,0.002542
4.142071,0.001437,0.002515
4.152076,0.001422,0.002489
4.162081,0.001407,0.002462
4.172086,0.001392,0.002436
4.182091,0.001376,0.002409
4.192096,0.001361,0.002382
4.202101,0.001346,0.002355
4.212106,0.00133,0.002328
4.222111,0.001315,0.002301
4.232116,0.001299,0.002273
4.242121,0.001284,0.002246
4.252126,0.001268,0.002219
4.262131,0.001252,0.002191
4.272136,0.001236,0.002164
4.282141,0.001221,0.002136
4.292146,0.001205,0.002108
4.302151,0.001189,0.00208
4.312156,0.001173,0.002052
4.322161,0.001157,0.002024
4.332166,0.001141,0.001996
4.342171,0.001125,0.001968
4.352176,0.001108,0.00194
4.362181,0.001092,0.001912
4.372186,0.001076,0.001883
4.382191,0.00106,0.001855
4.392196,0.001044,0.001826
4.402201,0.001027,0.001798
4.412206,0.001011,0.001769
4.422211,0.000994,0.00174
4.432216,0.000978,0.001711
4.442221,0.000961,0.001682
4.452226,0.000945,0.001653
4.462231,0.000928,0.001624
4.472236,0.000912,0.001595
4.482241,0.000895,0.001566
4.492246,0.000878,0.001537
4.502251,0.000861,0.001508
4.512256,0.000845,0.001478
4.522261,0.000828,0.001449
4.532266,0.000811,0.001419
4.542271,0.000794,0.00139
4.552276,0.000777,0.00136
4.562281,0.00076,0.001331
4.572286,0.000743,0.001301
4.582291,0.000726,0.001271
4.592296,0.000709,0.001242
4.602301,0.000692,0.001212
4.612306,0.000675,0.001182
4.622311,0.000658,0.001152
4.632316,0.000641,0.001122
4.642321,0.000624,0.001092
4.652326,0.000607,0.001062
4.662331,0.00059,0.001032
4.672336,0.000572,0.001002
4.682341,0.000555,0.000972
4.692346,0.000538,0.000941
4.702351,0.000521,0.000911
4.712356,0.000503,0.000881
4.722361,0.000486,0.00085
4.732366,0.000469,0.00082
4.742371,0.000451,0.00079
4.752376,0.000434,0.000759
4.762381,0.000416,0.000729
4.772386,0.000399,0.000698
4.782391,0.000382,0.000668
4.792396,0.000364,0.000637
4.802401,0.000347,0.000607
4.812406,0.000329,0.000576
4.822411,0.000312,0.000546
4.832416,0.000294,0.000515
4.842421,0.000277,0.000484
4.852426,0.000259,0.000454
4.862431,0.000242,0.000423
4.872436,0.000224,0.000392
4.882441,0.000207,0.000362
4.892446,0.000189,0.000331
4.902451,0.000172,0.0003
4.912456,0.000154,0.000269
4.922461,0.000136,0.000239
4.932466,0.000119,0.000208
4.942471,0.000101,0.000177
4.952476,8.4e-05,0.000146
4.962481,6.6e-05,0.000116
4.972486,4.8e-05,8.5e-05
4.982491,3.1e-05,5.4e-05
4.992496,1.3e-05,2.3e-05
5.002501,-4.00E-06,-8.00E-06
5.012506,-2.20E-05,-3.90E-05
5.022511,-4.00E-05,-6.90E-05
5.032516,-5.70E-05,-0.0001
5.042521,-7.50E-05,-0.000131
5.052526,-9.20E-05,-0.000162
5.062531,-0.00011,-0.000192
5.072536,-0.000128,-0.000223
5.082541,-0.000145,-0.000254
5.092546,-0.000163,-0.000285
5.102551,-0.00018,-0.000316
5.112556,-0.000198,-0.000346
5.122561,-0.000215,-0.000377
5.132566,-0.000233,-0.000408
5.142571,-0.00025,-0.000438
5.152576,-0.000268,-0.000469
5.162581,-0.000286,-0.0005
5.172586,-0.000303,-0.00053
5.182591,-0.000321,-0.000561
5.192596,-0.000338,-0.000592
5.202601,-0.000355,-0.000622
5.212606,-0.000373,-0.000653
5.222611,-0.00039,-0.000683
5.232616,-0.000408,-0.000714
5.242621,-0.000425,-0.000744
5.252626,-0.000443,-0.000775
5.262631,-0.00046,-0.000805
5.272636,-0.000477,-0.000835
5.282641,-0.000495,-0.000866
5.292646,-0.000512,-0.000896
5.302651,-0.000529,-0.000926
5.312656,-0.000547,-0.000956
5.322661,-0.000564,-0.000987
5.332666,-0.000581,-0.001017
5.342671,-0.000598,-0.001047
5.352676,-0.000615,-0.001077
5.362681,-0.000633,-0.001107
5.372686,-0.00065,-0.001137
5.382691,-0.000667,-0.001167
5.392696,-0.000684,-0.001197
5.402701,-0.000701,-0.001227
5.412706,-0.000718,-0.001256
5.422711,-0.000735,-0.001286
5.432716,-0.000752,-0.001316
5.442721,-0.000769,-0.001346
5.452726,-0.000786,-0.001375
5.462731,-0.000803,-0.001405
5.472736,-0.00082,-0.001434
5.482741,-0.000836,-0.001464
5.492746,-0.000853,-0.001493
5.502751,-0.00087,-0.001522
5.512756,-0.000887,-0.001551
5.522761,-0.000903,-0.001581
5.532766,-0.00092,-0.00161
5.542771,-0.000936,-0.001639
5.552776,-0.000953,-0.001668
5.562781,-0.00097,-0.001697
5.572786,-0.000986,-0.001726
5.582791,-0.001003,-0.001754
5.592796,-0.001019,-0.001783
5.602801,-0.001035,-0.001812
5.612806,-0.001052,-0.00184
5.622811,-0.001068,-0.001869
5.632816,-0.001084,-0.001897
5.642821,-0.0011,-0.001926
5.652826,-0.001117,-0.001954
5.662831,-0.001133,-0.001982
5.672836,-0.001149,-0.00201
5.682841,-0.001165,-0.002038
5.692846,-0.001181,-0.002066
5.702851,-0.001197,-0.002094
5.712856,-0.001213,-0.002122
5.722861,-0.001228,-0.00215
5.732866,-0.001244,-0.002177
5.742871,-0.00126,-0.002205
5.752876,-0.001276,-0.002232
5.762881,-0.001291,-0.00226
5.772886,-0.001307,-0.002287
5.782891,-0.001322,-0.002314
5.792896,-0.001338,-0.002341
5.802901,-0.001353,-0.002368
5.812906,-0.001369,-0.002395
5.822911,-0.001384,-0.002422
5.832916,-0.001399,-0.002449
5.842921,-0.001415,-0.002476
5.852926,-0.00143,-0.002502
5.862931,-0.001445,-0.002528
5.872936,-0.00146,-0.002555
5.882941,-0.001475,-0.002581
5.892946,-0.00149,-0.002607
5.902951,-0.001505,-0.002633
5.912956,-0.00152,-0.002659
5.922961,-0.001534,-0.002685
5.932966,-0.001549,-0.002711
5.942971,-0.001564,-0.002736
5.952976,-0.001578,-0.002762
5.962981,-0.001593,-0.002787
5.972986,-0.001607,-0.002812
5.982991,-0.001621,-0.002838
5.992996,-0.001636,-0.002863
6.003002,-0.00165,-0.002888
6.013007,-0.001664,-0.002912
6.023012,-0.001678,-0.002937
6.033017,-0.001692,-0.002962
6.043022,-0.001706,-0.002986
6.053027,-0.00172,-0.003011
6.063032,-0.001734,-0.003035
6.073037,-0.001748,-0.003059
6.083042,-0.001762,-0.003083
6.093047,-0.001775,-0.003107
6.103052,-0.001789,-0.003131
6.113057,-0.001802,-0.003154
6.123062,-0.001816,-0.003178
6.133067,-0.001829,-0.003201
6.143072,-0.001843,-0.003224
6.153077,-0.001856,-0.003248
6.163082,-0.001869,-0.003271
6.173087,-0.001882,-0.003293
6.183092,-0.001895,-0.003316
6.193097,-0.001908,-0.003339
6.203102,-0.001921,-0.003361
6.213107,-0.001933,-0.003384
6.223112,-0.001946,-0.003406
6.233117,-0.001959,-0.003428
6.243122,-0.001971,-0.00345
6.253127,-0.001984,-0.003472
6.263132,-0.001996,-0.003493
6.273137,-0.002008,-0.003515
6.283142,-0.002021,-0.003536
6.293147,-0.002033,-0.003557
6.303152,-0.002045,-0.003579
6.313157,-0.002057,-0.0036
6.323162,-0.002069,-0.00362
6.333167,-0.002081,-0.003641
6.343172,-0.002092,-0.003662
6.353177,-0.002104,-0.003682
6.363182,-0.002116,-0.003702
6.373187,-0.002127,-0.003722
6.383192,-0.002138,-0.003742
6.393197,-0.00215,-0.003762
6.403202,-0.002161,-0.003782
6.413207,-0.002172,-0.003801
6.423212,-0.002183,-0.003821
6.433217,-0.002194,-0.00384
6.443222,-0.002205,-0.003859
6.453227,-0.002216,-0.003878
6.463232,-0.002227,-0.003897
6.473237,-0.002237,-0.003915
6.483242,-0.002248,-0.003934
6.493247,-0.002258,-0.003952
6.503252,-0.002269,-0.00397
6.513257,-0.002279,-0.003988
6.523262,-0.002289,-0.004006
6.533267,-0.002299,-0.004024
6.543272,-0.002309,-0.004041
6.553277,-0.002319,-0.004058
6.563282,-0.002329,-0.004076
6.573287,-0.002339,-0.004093
6.583292,-0.002348,-0.004109
6.593297,-0.002358,-0.004126
6.603302,-0.002367,-0.004143
6.613307,-0.002377,-0.004159
6.623312,-0.002386,-0.004175
6.633317,-0.002395,-0.004191
6.643322,-0.002404,-0.004207
6.653327,-0.002413,-0.004223
6.663332,-0.002422,-0.004238
6.673337,-0.002431,-0.004254
6.683342,-0.002439,-0.004269
6.693347,-0.002448,-0.004284
6.703352,-0.002456,-0.004299
6.713357,-0.002465,-0.004314
6.723362,-0.002473,-0.004328
6.733367,-0.002481,-0.004342
6.743372,-0.00249,-0.004357
6.753377,-0.002498,-0.004371
6.763382,-0.002505,-0.004384
6.773387,-0.002513,-0.004398
6.783392,-0.002521,-0.004412
6.793397,-0.002529,-0.004425
6.803402,-0.002536,-0.004438
6.813407,-0.002543,-0.004451
6.823412,-0.002551,-0.004464
6.833417,-0.002558,-0.004476
6.843422,-0.002565,-0.004489
6.853427,-0.002572,-0.004501
6.863432,-0.002579,-0.004513
6.873437,-0.002586,-0.004525
6.883442,-0.002593,-0.004537
6.893447,-0.002599,-0.004548
6.903452,-0.002606,-0.00456
6.913457,-0.002612,-0.004571
6.923462,-0.002618,-0.004582
6.933467,-0.002624,-0.004593
6.943472,-0.002631,-0.004603
6.953477,-0.002637,-0.004614
6.963482,-0.002642,-0.004624
6.973487,-0.002648,-0.004634
6.983492,-0.002654,-0.004644
6.993497,-0.002659,-0.004654
7.003502,-0.002665,-0.004663
7.013507,-0.00267,-0.004673
7.023512,-0.002675,-0.004682
7.033517,-0.002681,-0.004691
7.043522,-0.002686,-0.0047
7.053527,-0.002691,-0.004708
7.063532,-0.002695,-0.004717
7.073537,-0.0027,-0.004725
7.083542,-0.002705,-0.004733
7.093547,-0.002709,-0.004741
7.103552,-0.002714,-0.004749
7.113557,-0.002718,-0.004756
7.123562,-0.002722,-0.004764
7.133567,-0.002726,-0.004771
7.143572,-0.00273,-0.004778
7.153577,-0.002734,-0.004784
7.163582,-0.002738,-0.004791
7.173587,-0.002741,-0.004797
7.183592,-0.002745,-0.004803
7.193597,-0.002748,-0.004809
7.203602,-0.002752,-0.004815
7.213607,-0.002755,-0.004821
7.223612,-0.002758,-0.004826
7.233617,-0.002761,-0.004832
7.243622,-0.002764,-0.004837
7.253627,-0.002767,-0.004841
7.263632,-0.002769,-0.004846
7.273637,-0.002772,-0.004851
7.283642,-0.002774,-0.004855
7.293647,-0.002776,-0.004859
7.303652,-0.002779,-0.004863
7.313657,-0.002781,-0.004866
7.323662,-0.002783,-0.00487
7.333667,-0.002785,-0.004873
7.343672,-0.002787,-0.004876
7.353677,-0.002788,-0.004879
7.363682,-0.00279,-0.004882
7.373687,-0.002791,-0.004885
7.383692,-0.002793,-0.004887
7.393697,-0.002794,-0.004889
7.403702,-0.002795,-0.004891
7.413707,-0.002796,-0.004893
7.423712,-0.002797,-0.004894
7.433717,-0.002798,-0.004896
7.443722,-0.002798,-0.004897
7.453727,-0.002799,-0.004898
7.463732,-0.002799,-0.004899
7.473737,-0.0028,-0.004899
7.483742,-0.0028,-0.0049
7.493747,-0.0028,-0.0049
7.503752,-0.0028,-0.0049
7.513757,-0.0028,-0.0049
7.523762,-0.0028,-0.004899
7.533767,-0.002799,-0.004899
7.543772,-0.002799,-0.004898
7.553777,-0.002798,-0.004897
7.563782,-0.002798,-0.004896
7.573787,-0.002797,-0.004895
7.583792,-0.002796,-0.004893
7.593797,-0.002795,-0.004891
7.603802,-0.002794,-0.00489
7.613807,-0.002793,-0.004887
7.623812,-0.002792,-0.004885
7.633817,-0.00279,-0.004883
7.643822,-0.002789,-0.00488
7.653827,-0.002787,-0.004877
7.663832,-0.002785,-0.004874
7.673837,-0.002783,-0.004871
7.683842,-0.002781,-0.004867
7.693847,-0.002779,-0.004864
7.703852,-0.002777,-0.00486
7.713857,-0.002775,-0.004856
7.723862,-0.002772,-0.004852
7.733867,-0.00277,-0.004847
7.743872,-0.002767,-0.004843
7.753877,-0.002764,-0.004838
7.763882,-0.002762,-0.004833
7.773887,-0.002759,-0.004828
7.783892,-0.002756,-0.004822
7.793897,-0.002752,-0.004817
7.803902,-0.002749,-0.004811
7.813907,-0.002746,-0.004805
7.823912,-0.002742,-0.004799
7.833917,-0.002739,-0.004793
7.843922,-0.002735,-0.004786
7.853927,-0.002731,-0.004779
7.863932,-0.002727,-0.004772
7.873937,-0.002723,-0.004765
7.883942,-0.002719,-0.004758
7.893947,-0.002715,-0.004751
7.903952,-0.00271,-0.004743
7.913957,-0.002706,-0.004735
7.923962,-0.002701,-0.004727
7.933967,-0.002697,-0.004719
7.943972,-0.002692,-0.004711
7.953977,-0.002687,-0.004702
7.963982,-0.002682,-0.004693
7.973987,-0.002677,-0.004684
7.983992,-0.002672,-0.004675
7.993997,-0.002666,-0.004666
8.004002,-0.002661,-0.004656
8.014007,-0.002655,-0.004647
8.024012,-0.00265,-0.004637
8.034017,-0.002644,-0.004627
8.044022,-0.002638,-0.004617
8.054027,-0.002632,-0.004606
8.064032,-0.002626,-0.004596
8.074037,-0.00262,-0.004585
8.084042,-0.002614,-0.004574
8.094047,-0.002607,-0.004563
8.104052,-0.002601,-0.004551
8.114057,-0.002594,-0.00454
8.124062,-0.002587,-0.004528
8.134067,-0.002581,-0.004516
8.144072,-0.002574,-0.004504
8.154077,-0.002567,-0.004492
8.164082,-0.00256,-0.00448
8.174087,-0.002553,-0.004467
8.184092,-0.002545,-0.004454
8.194097,-0.002538,-0.004441
8.204102,-0.00253,-0.004428
8.214107,-0.002523,-0.004415
8.224112,-0.002515,-0.004402
8.234117,-0.002507,-0.004388
8.244122,-0.002499,-0.004374
8.254127,-0.002492,-0.00436
8.264132,-0.002483,-0.004346
8.274137,-0.002475,-0.004332
8.284142,-0.002467,-0.004317
8.294147,-0.002459,-0.004303
8.304152,-0.00245,-0.004288
8.314157,-0.002442,-0.004273
8.324162,-0.002433,-0.004258
8.334167,-0.002424,-0.004242
8.344172,-0.002415,-0.004227
8.354177,-0.002406,-0.004211
8.364182,-0.002397,-0.004195
8.374187,-0.002388,-0.004179
8.384192,-0.002379,-0.004163
8.394197,-0.00237,-0.004147
8.404202,-0.00236,-0.00413
8.414207,-0.002351,-0.004114
8.424212,-0.002341,-0.004097
8.434217,-0.002331,-0.00408
8.444222,-0.002322,-0.004063
8.454227,-0.002312,-0.004045
8.464232,-0.002302,-0.004028
8.474237,-0.002292,-0.00401
8.484242,-0.002281,-0.003993
8.494247,-0.002271,-0.003975
8.504252,-0.002261,-0.003956
8.514257,-0.00225,-0.003938
8.524262,-0.00224,-0.00392
8.534267,-0.002229,-0.003901
8.544272,-0.002219,-0.003883
8.554277,-0.002208,-0.003864
8.564282,-0.002197,-0.003845
8.574287,-0.002186,-0.003825
8.584292,-0.002175,-0.003806
8.594297,-0.002164,-0.003787
8.604302,-0.002153,-0.003767
8.614307,-0.002141,-0.003747
8.624312,-0.00213,-0.003727
8.634317,-0.002118,-0.003707
8.644322,-0.002107,-0.003687
8.654327,-0.002095,-0.003667
8.664332,-0.002084,-0.003646
8.674337,-0.002072,-0.003626
8.684342,-0.00206,-0.003605
8.694347,-0.002048,-0.003584
8.704352,-0.002036,-0.003563
8.714357,-0.002024,-0.003542
8.724362,-0.002012,-0.00352
8.734367,-0.001999,-0.003499
8.744372,-0.001987,-0.003477
8.754377,-0.001974,-0.003455
8.764382,-0.001962,-0.003433
8.774387,-0.001949,-0.003411
8.784392,-0.001937,-0.003389
8.794397,-0.001924,-0.003367
8.804402,-0.001911,-0.003344
8.814407,-0.001898,-0.003322
8.824412,-0.001885,-0.003299
8.834417,-0.001872,-0.003276
8.844422,-0.001859,-0.003253
8.854427,-0.001846,-0.00323
8.864432,-0.001833,-0.003207
8.874437,-0.001819,-0.003184
8.884442,-0.001806,-0.00316
8.894447,-0.001792,-0.003137
8.904452,-0.001779,-0.003113
8.914457,-0.001765,-0.003089
8.924462,-0.001751,-0.003065
8.934467,-0.001738,-0.003041
8.944472,-0.001724,-0.003017
8.954477,-0.00171,-0.002992
8.964482,-0.001696,-0.002968
8.974487,-0.001682,-0.002943
8.984492,-0.001668,-0.002919
8.994497,-0.001654,-0.002894
9.004502,-0.001639,-0.002869
9.014507,-0.001625,-0.002844
9.024512,-0.001611,-0.002819
9.034517,-0.001596,-0.002794
9.044522,-0.001582,-0.002768
9.054527,-0.001567,-0.002743
9.064532,-0.001553,-0.002717
9.074537,-0.001538,-0.002691
9.084542,-0.001523,-0.002666
9.094547,-0.001508,-0.00264
9.104552,-0.001494,-0.002614
9.114557,-0.001479,-0.002588
9.124562,-0.001464,-0.002561
9.134567,-0.001449,-0.002535
9.144572,-0.001434,-0.002509
9.154577,-0.001418,-0.002482
9.164582,-0.001403,-0.002456
9.174587,-0.001388,-0.002429
9.184592,-0.001373,-0.002402
9.194597,-0.001357,-0.002375
9.204602,-0.001342,-0.002348
9.214607,-0.001326,-0.002321
9.224612,-0.001311,-0.002294
9.234617,-0.001295,-0.002267
9.244622,-0.00128,-0.002239
9.254627,-0.001264,-0.002212
9.264632,-0.001248,-0.002184
9.274637,-0.001232,-0.002157
9.284642,-0.001217,-0.002129
9.294647,-0.001201,-0.002101
9.304652,-0.001185,-0.002073
9.314657,-0.001169,-0.002045
9.324662,-0.001153,-0.002017
9.334667,-0.001137,-0.001989
9.344672,-0.001121,-0.001961
9.354677,-0.001104,-0.001933
9.364682,-0.001088,-0.001904
9.374687,-0.001072,-0.001876
9.384692,-0.001056,-0.001848
9.394697,-0.001039,-0.001819
9.404702,-0.001023,-0.00179
9.414707,-0.001007,-0.001762
9.424712,-0.00099,-0.001733
9.434717,-0.000974,-0.001704
9.444722,-0.000957,-0.001675
9.454727,-0.000941,-0.001646
9.464732,-0.000924,-0.001617
9.474737,-0.000907,-0.001588
9.484742,-0.000891,-0.001559
9.494747,-0.000874,-0.00153
9.504752,-0.000857,-0.0015
9.514757,-0.000841,-0.001471
9.524762,-0.000824,-0.001441
9.534767,-0.000807,-0.001412
9.544772,-0.00079,-0.001383
9.554777,-0.000773,-0.001353
9.564782,-0.000756,-0.001323
9.574787,-0.000739,-0.001294
9.584792,-0.000722,-0.001264
9.594797,-0.000705,-0.001234
9.604802,-0.000688,-0.001204
9.614807,-0.000671,-0.001174
9.624812,-0.000654,-0.001144
9.634817,-0.000637,-0.001114
9.644822,-0.00062,-0.001084
9.654827,-0.000603,-0.001054
9.664832,-0.000585,-0.001024
9.674837,-0.000568,-0.000994
9.684842,-0.000551,-0.000964
9.694847,-0.000534,-0.000934
9.704852,-0.000516,-0.000903
9.714857,-0.000499,-0.000873
9.724862,-0.000482,-0.000843
9.734867,-0.000464,-0.000813
9.744872,-0.000447,-0.000782
9.754877,-0.00043,-0.000752
9.764882,-0.000412,-0.000721
9.774887,-0.000395,-0.000691
9.784892,-0.000377,-0.00066
9.794897,-0.00036,-0.00063
9.804902,-0.000342,-0.000599
9.814907,-0.000325,-0.000569
9.824912,-0.000307,-0.000538
9.834917,-0.00029,-0.000507
9.844922,-0.000272,-0.000477
9.854927,-0.000255,-0.000446
9.864932,-0.000237,-0.000415
9.874937,-0.00022,-0.000385
9.884942,-0.000202,-0.000354
9.894947,-0.000185,-0.000323
9.904952,-0.000167,-0.000292
9.914957,-0.00015,-0.000262
9.924962,-0.000132,-0.000231
9.934967,-0.000114,-0.0002
9.944972,-9.70E-05,-0.000169
9.954977,-7.90E-05,-0.000139
9.964982,-6.20E-05,-0.000108
9.974987,-4.40E-05,-7.70E-05
9.984992,-2.60E-05,-4.60E-05
9.994997,-9.00E-06,-1.50E-05
10.005003,9e-06,1.5e-05
10.015008,2.6e-05,4.6e-05
10.025013,4.4e-05,7.7e-05
10.035018,6.2e-05,0.000108
10.045023,7.9e-05,0.000139
10.055028,9.7e-05,0.000169
10.065033,0.000114,0.0002
10.075038,0.000132,0.000231
10.085043,0.00015,0.000262
10.095048,0.000167,0.000292
10.105053,0.000185,0.000323
10.115058,0.000202,0.000354
10.125063,0.00022,0.000385
10.135068,0.000237,0.000415
10.145073,0.000255,0.000446
10.155078,0.000272,0.000477
10.165083,0.00029,0.000507
10.175088,0.000307,0.000538
10.185093,0.000325,0.000569
10.195098,0.000342,0.000599
10.205103,0.00036,0.00063
10.215108,0.000377,0.00066
10.225113,0.000395,0.000691
10.235118,0.000412,0.000721
10.245123,0.00043,0.000752
10.255128,0.000447,0.000782
10.265133,0.000464,0.000813
10.275138,0.000482,0.000843
10.285143,0.000499,0.000873
10.295148,0.000516,0.000903
10.305153,0.000534,0.000934
10.315158,0.000551,0.000964
10.325163,0.000568,0.000994
10.335168,0.000585,0.001024
10.345173,0.000603,0.001054
10.355178,0.00062,0.001084
10.365183,0.000637,0.001114
10.375188,0.000654,0.001144
10.385193,0.000671,0.001174
10.395198,0.000688,0.001204
10.405203,0.000705,0.001234
10.415208,0.000722,0.001264
10.425213,0.000739,0.001294
10.435218,0.000756,0.001323
10.445223,0.000773,0.001353
10.455228,0.00079,0.001383
10.465233,0.000807,0.001412
10.475238,0.000824,0.001441
10.485243,0.000841,0.001471
10.495248,0.000857,0.0015
10.505253,0.000874,0.00153
10.515258,0.000891,0.001559
10.525263,0.000907,0.001588
10.535268,0.000924,0.001617
10.545273,0.000941,0.001646
10.555278,0.000957,0.001675
10.565283,0.000974,0.001704
10.575288,0.00099,0.001733
10.585293,0.001007,0.001762
10.595298,0.001023,0.00179
10.605303,0.001039,0.001819
10.615308,0.001056,0.001848
10.625313,0.001072,0.001876
10.635318,0.001088,0.001904
10.645323,0.001104,0.001933
10.655328,0.001121,0.001961
10.665333,0.001137,0.001989
10.675338,0.001153,0.002017
10.685343,0.001169,0.002045
10.695348,0.001185,0.002073
10.705353,0.001201,0.002101
10.715358,0.001217,0.002129
10.725363,0.001232,0.002157
10.735368,0.001248,0.002184
10.745373,0.001264,0.002212
10.755378,0.00128,0.002239
10.765383,0.001295,0.002267
10.775388,0.001311,0.002294
10.785393,0.001326,0.002321
10.795398,0.001342,0.002348
10.805403,0.001357,0.002375
10.815408,0.001373,0.002402
10.825413,0.001388,0.002429
10.835418,0.001403,0.002456
10.845423,0.001418,0.002482
10.855428,0.001434,0.002509
10.865433,0.001449,0.002535
10.875438,0.001464,0.002561
10.885443,0.001479,0.002588
10.895448,0.001494,0.002614
10.905453,0.001508,0.00264
10.915458,0.001523,0.002666
10.925463,0.001538,0.002691
10.935468,0.001553,0.002717
10.945473,0.001567,0.002743
10.955478,0.001582,0.002768
10.965483,0.001596,0.002794
10.975488,0.001611,0.002819
10.985493,0.001625,0.002844
10.995498,0.001639,0.002869
11.005503,0.001654,0.002894
11.015508,0.001668,0.002919
11.025513,0.001682,0.002943
11.035518,0.001696,0.002968
11.045523,0.00171,0.002992
11.055528,0.001724,0.003017
11.065533,0.001738,0.003041
11.075538,0.001751,0.003065
11.085543,0.001765,0.003089
11.095548,0.001779,0.003113
11.105553,0.001792,0.003137
11.115558,0.001806,0.00316
11.125563,0.001819,0.003184
11.135568,0.001833,0.003207
11.145573,0.001846,0.00323
11.155578,0.001859,0.003253
11.165583,0.001872,0.003276
11.175588,0.001885,0.003299
11.185593,0.001898,0.003322
11.195598,0.001911,0.003344
11.205603,0.001924,0.003367
11.215608,0.001937,0.003389
11.225613,0.001949,0.003411
11.235618,0.001962,0.003433
11.245623,0.001974,0.003455
11.255628,0.001987,0.003477
11.265633,0.001999,0.003499
11.275638,0.002012,0.00352
11.285643,0.002024,0.003542
11.295648,0.002036,0.003563
11.305653,0.002048,0.003584
11.315658,0.00206,0.003605
11.325663,0.002072,0.003626
11.335668,0.002084,0.003646
11.345673,0.002095,0.003667
11.355678,0.002107,0.003687
11.365683,0.002118,0.003707
11.375688,0.00213,0.003727
11.385693,0.002141,0.003747
11.395698,0.002153,0.003767
11.405703,0.002164,0.003787
11.415708,0.002175,0.003806
11.425713,0.002186,0.003825
11.435718,0.002197,0.003845
11.445723,0.002208,0.003864
11.455728,0.002219,0.003883
11.465733,0.002229,0.003901
11.475738,0.00224,0.00392
11.485743,0.00225,0.003938
11.495748,0.002261,0.003956
11.505753,0.002271,0.003975
11.515758,0.002281,0.003993
11.525763,0.002292,0.00401
11.535768,0.002302,0.004028
11.545773,0.002312,0.004045
11.555778,0.002322,0.004063
11.565783,0.002331,0.00408
11.575788,0.002341,0.004097
11.585793,0.002351,0.004114
11.595798,0.00236,0.00413
11.605803,0.00237,0.004147
11.615808,0.002379,0.004163
11.625813,0.002388,0.004179
11.635818,0.002397,0.004195
11.645823,0.002406,0.004211
11.655828,0.002415,0.004227
11.665833,0.002424,0.004242
11.675838,0.002433,0.004258
11.685843,0.002442,0.004273
11.695848,0.00245,0.004288
11.705853,0.002459,0.004303
11.715858,0.002467,0.004317
11.725863,0.002475,0.004332
11.735868,0.002483,0.004346
11.745873,0.002492,0.00436
11.755878,0.002499,0.004374
11.765883,0.002507,0.004388
11.775888,0.002515,0.004402
11.785893,0.002523,0.004415
11.795898,0.00253,0.004428
11.805903,0.002538,0.004441
11.815908,0.002545,0.004454
11.825913,0.002553,0.004467
11.835918,0.00256,0.00448
11.845923,0.002567,0.004492
11.855928,0.002574,0.004504
11.865933,0.002581,0.004516
11.875938,0.002587,0.004528
11.885943,0.002594,0.00454
11.895948,0.002601,0.004551
11.905953,0.002607,0.004563
11.915958,0.002614,0.004574
11.925963,0.00262,0.004585
11.935968,0.002626,0.004596
11.945973,0.002632,0.004606
11.955978,0.002638,0.004617
11.965983,0.002644,0.004627
11.975988,0.00265,0.004637
11.985993,0.002655,0.004647
11.995998,0.002661,0.004656
12.006003,0.002666,0.004666
12.016008,0.002672,0.004675
12.026013,0.002677,0.004684
12.036018,0.002682,0.004693
12.046023,0.002687,0.004702
12.056028,0.002692,0.004711
12.066033,0.002697,0.004719
12.076038,0.002701,0.004727
12.086043,0.002706,0.004735
12.096048,0.00271,0.004743
12.106053,0.002715,0.004751
12.116058,0.002719,0.004758
12.126063,0.002723,0.004765
12.136068,0.002727,0.004772
12.146073,0.002731,0.004779
12.156078,0.002735,0.004786
12.166083,0.002739,0.004793
12.176088,0.002742,0.004799
12.186093,0.002746,0.004805
12.196098,0.002749,0.004811
12.206103,0.002752,0.004817
12.216108,0.002756,0.004822
12.226113,0.002759,0.004828
12.236118,0.002762,0.004833
12.246123,0.002764,0.004838
12.256128,0.002767,0.004843
12.266133,0.00277,0.004847
12.276138,0.002772,0.004852
12.286143,0.002775,0.004856
12.296148,0.002777,0.00486
12.306153,0.002779,0.004864
12.316158,0.002781,0.004867
12.326163,0.002783,0.004871
12.336168,0.002785,0.004874
12.346173,0.002787,0.004877
12.356178,0.002789,0.00488
12.366183,0.00279,0.004883
12.376188,0.002792,0.004885
12.386193,0.002793,0.004887
12.396198,0.002794,0.00489
12.406203,0.002795,0.004891
12.416208,0.002796,0.004893
12.426213,0.002797,0.004895
12.436218,0.002798,0.004896
12.446223,0.002798,0.004897
12.456228,0.002799,0.004898
12.466233,0.002799,0.004899
12.476238,0.0028,0.004899
12.486243,0.0028,0.0049
12.496248,0.0028,0.0049
12.506253,0.0028,0.0049
12.516258,0.0028,0.0049
12.526263,0.0028,0.004899
12.536268,0.002799,0.004899
12.546273,0.002799,0.004898
12.556278,0.002798,0.004897
12.566283,0.002798,0.004896
12.576288,0.002797,0.004894
12.586293,0.002796,0.004893
12.596298,0.002795,0.004891
12.606303,0.002794,0.004889
12.616308,0.002793,0.004887
12.626313,0.002791,0.004885
12.636318,0.00279,0.004882
12.646323,0.002788,0.004879
12.656328,0.002787,0.004876
12.666333,0.002785,0.004873
12.676338,0.002783,0.00487
12.686343,0.002781,0.004866
12.696348,0.002779,0.004863
12.706353,0.002776,0.004859
12.716358,0.002774,0.004855
12.726363,0.002772,0.004851
12.736368,0.002769,0.004846
12.746373,0.002767,0.004841
12.756378,0.002764,0.004837
12.766383,0.002761,0.004832
12.776388,0.002758,0.004826
12.786393,0.002755,0.004821
12.796398,0.002752,0.004815
12.806403,0.002748,0.004809
12.816408,0.002745,0.004803
12.826413,0.002741,0.004797
12.836418,0.002738,0.004791
12.846423,0.002734,0.004784
12.856428,0.00273,0.004778
12.866433,0.002726,0.004771
12.876438,0.002722,0.004764
12.886443,0.002718,0.004756
12.896448,0.002714,0.004749
12.906453,0.002709,0.004741
12.916458,0.002705,0.004733
12.926463,0.0027,0.004725
12.936468,0.002695,0.004717
12.946473,0.002691,0.004708
12.956478,0.002686,0.0047
12.966483,0.002681,0.004691
12.976488,0.002675,0.004682
12.986493,0.00267,0.004673
12.996498,0.002665,0.004663
13.006503,0.002659,0.004654
13.016508,0.002654,0.004644
13.026513,0.002648,0.004634
13.036518,0.002642,0.004624
13.046523,0.002637,0.004614
13.056528,0.002631,0.004603
13.066533,0.002624,0.004593
13.076538,0.002618,0.004582
13.086543,0.002612,0.004571
13.096548,0.002606,0.00456
13.106553,0.002599,0.004548
13.116558,0.002593,0.004537
13.126563,0.002586,0.004525
13.136568,0.002579,0.004513
13.146573,0.002572,0.004501
13.156578,0.002565,0.004489
13.166583,0.002558,0.004476
13.176588,0.002551,0.004464
13.186593,0.002543,0.004451
13.196598,0.002536,0.004438
13.206603,0.002529,0.004425
13.216608,0.002521,0.004412
13.226613,0.002513,0.004398
13.236618,0.002505,0.004384
13.246623,0.002498,0.004371
13.256628,0.00249,0.004357
13.266633,0.002481,0.004342
13.276638,0.002473,0.004328
13.286643,0.002465,0.004314
13.296648,0.002456,0.004299
13.306653,0.002448,0.004284
13.316658,0.002439,0.004269
13.326663,0.002431,0.004254
13.336668,0.002422,0.004238
13.346673,0.002413,0.004223
13.356678,0.002404,0.004207
13.366683,0.002395,0.004191
13.376688,0.002386,0.004175
13.386693,0.002377,0.004159
13.396698,0.002367,0.004143
13.406703,0.002358,0.004126
13.416708,0.002348,0.004109
13.426713,0.002339,0.004093
13.436718,0.002329,0.004076
13.446723,0.002319,0.004058
13.456728,0.002309,0.004041
13.466733,0.002299,0.004024
13.476738,0.002289,0.004006
13.486743,0.002279,0.003988
13.496748,0.002269,0.00397
13.506753,0.002258,0.003952
13.516758,0.002248,0.003934
13.526763,0.002237,0.003915
13.536768,0.002227,0.003897
13.546773,0.002216,0.003878
13.556778,0.002205,0.003859
13.566783,0.002194,0.00384
13.576788,0.002183,0.003821
13.586793,0.002172,0.003801
13.596798,0.002161,0.003782
13.606803,0.00215,0.003762
13.616808,0.002138,0.003742
13.626813,0.002127,0.003722
13.636818,0.002116,0.003702
13.646823,0.002104,0.003682
13.656828,0.002092,0.003662
13.666833,0.002081,0.003641
13.676838,0.002069,0.00362
13.686843,0.002057,0.0036
13.696848,0.002045,0.003579
13.706853,0.002033,0.003557
13.716858,0.002021,0.003536
13.726863,0.002008,0.003515
13.736868,0.001996,0.003493
13.746873,0.001984,0.003472
13.756878,0.001971,0.00345
13.766883,0.001959,0.003428
13.776888,0.001946,0.003406
13.786893,0.001933,0.003384
13.796898,0.001921,0.003361
13.806903,0.001908,0.003339
13.816908,0.001895,0.003316
13.826913,0.001882,0.003293
13.836918,0.001869,0.003271
13.846923,0.001856,0.003248
13.856928,0.001843,0.003224
13.866933,0.001829,0.003201
13.876938,0.001816,0.003178
13.886943,0.001802,0.003154
13.896948,0.001789,0.003131
13.906953,0.001775,0.003107
13.916958,0.001762,0.003083
13.926963,0.001748,0.003059
13.936968,0.001734,0.003035
13.946973,0.00172,0.003011
13.956978,0.001706,0.002986
13.966983,0.001692,0.002962
13.976988,0.001678,0.002937
13.986993,0.001664,0.002912
13.996998,0.00165,0.002888
14.007004,0.001636,0.002863
14.017009,0.001621,0.002838
14.027014,0.001607,0.002812
14.037019,0.001593,0.002787
14.047024,0.001578,0.002762
14.057029,0.001564,0.002736
14.067034,0.001549,0.002711
14.077039,0.001534,0.002685
14.087044,0.00152,0.002659
14.097049,0.001505,0.002633
14.107054,0.00149,0.002607
14.117059,0.001475,0.002581
14.127064,0.00146,0.002555
14.137069,0.001445,0.002528
14.147074,0.00143,0.002502
14.157079,0.001415,0.002476
14.167084,0.001399,0.002449
14.177089,0.001384,0.002422
14.187094,0.001369,0.002395
14.197099,0.001353,0.002368
14.207104,0.001338,0.002341
14.217109,0.001322,0.002314
14.227114,0.001307,0.002287
14.237119,0.001291,0.00226
14.247124,0.001276,0.002232
14.257129,0.00126,0.002205
14.267134,0.001244,0.002177
14.277139,0.001228,0.00215
14.287144,0.001213,0.002122
14.297149,0.001197,0.002094
14.307154,0.001181,0.002066
14.317159,0.001165,0.002038
14.327164,0.001149,0.00201
14.337169,0.001133,0.001982
14.347174,0.001117,0.001954
14.357179,0.0011,0.001926
14.367184,0.001084,0.001897
14.377189,0.001068,0.001869
14.387194,0.001052,0.00184
14.397199,0.001035,0.001812
14.407204,0.001019,0.001783
14.417209,0.001003,0.001754
14.427214,0.000986,0.001726
14.437219,0.00097,0.001697
14.447224,0.000953,0.001668
14.457229,0.000936,0.001639
14.467234,0.00092,0.00161
14.477239,0.000903,0.001581
14.487244,0.000887,0.001551
14.497249,0.00087,0.001522
14.507254,0.000853,0.001493
14.517259,0.000836,0.001464
14.527264,0.00082,0.001434
14.537269,0.000803,0.001405
14.547274,0.000786,0.001375
14.557279,0.000769,0.001346
14.567284,0.000752,0.001316
14.577289,0.000735,0.001286
14.587294,0.000718,0.001256
14.597299,0.000701,0.001227
14.607304,0.000684,0.001197
14.617309,0.000667,0.001167
14.627314,0.00065,0.001137
14.637319,0.000633,0.001107
14.647324,0.000615,0.001077
14.657329,0.000598,0.001047
14.667334,0.000581,0.001017
14.677339,0.000564,0.000987
14.687344,0.000547,0.000956
14.697349,0.000529,0.000926
14.707354,0.000512,0.000896
14.717359,0.000495,0.000866
14.727364,0.000477,0.000835
14.737369,0.00046,0.000805
14.747374,0.000443,0.000775
14.757379,0.000425,0.000744
14.767384,0.000408,0.000714
14.777389,0.00039,0.000683
14.787394,0.000373,0.000653
14.797399,0.000355,0.000622
14.807404,0.000338,0.000592
14.817409,0.000321,0.000561
14.827414,0.000303,0.00053
14.837419,0.000286,0.0005
14.847424,0.000268,0.000469
14.857429,0.00025,0.000438
14.867434,0.000233,0.000408
14.877439,0.000215,0.000377
14.887444,0.000198,0.000346
14.897449,0.00018,0.000316
14.907454,0.000163,0.000285
14.917459,0.000145,0.000254
14.927464,0.000128,0.000223
14.937469,0.00011,0.000192
14.947474,9.2e-05,0.000162
14.957479,7.5e-05,0.000131
14.967484,5.7e-05,0.0001
14.977489,4e-05,6.9e-05
14.987494,2.2e-05,3.9e-05
14.997499,4e-06,8e-06
15.007504,-1.30E-05,-2.30E-05
15.017509,-3.10E-05,-5.40E-05
15.027514,-4.80E-05,-8.50E-05
15.037519,-6.60E-05,-0.000116
15.047524,-8.40E-05,-0.000146
15.057529,-0.000101,-0.000177
15.067534,-0.000119,-0.000208
15.077539,-0.000136,-0.000239
15.087544,-0.000154,-0.000269
15.097549,-0.000172,-0.0003
15.107554,-0.000189,-0.000331
15.117559,-0.000207,-0.000362
15.127564,-0.000224,-0.000392
15.137569,-0.000242,-0.000423
15.147574,-0.000259,-0.000454
15.157579,-0.000277,-0.000484
15.167584,-0.000294,-0.000515
15.177589,-0.000312,-0.000546
15.187594,-0.000329,-0.000576
15.197599,-0.000347,-0.000607
15.207604,-0.000364,-0.000637
15.217609,-0.000382,-0.000668
15.227614,-0.000399,-0.000698
15.237619,-0.000416,-0.000729
15.247624,-0.000434,-0.000759
15.257629,-0.000451,-0.00079
15.267634,-0.000469,-0.00082
15.277639,-0.000486,-0.00085
15.287644,-0.000503,-0.000881
15.297649,-0.000521,-0.000911
15.307654,-0.000538,-0.000941
15.317659,-0.000555,-0.000972
15.327664,-0.000572,-0.001002
15.337669,-0.00059,-0.001032
15.347674,-0.000607,-0.001062
15.357679,-0.000624,-0.001092
15.367684,-0.000641,-0.001122
15.377689,-0.000658,-0.001152
15.387694,-0.000675,-0.001182
15.397699,-0.000692,-0.001212
15.407704,-0.000709,-0.001242
15.417709,-0.000726,-0.001271
15.427714,-0.000743,-0.001301
15.437719,-0.00076,-0.001331
15.447724,-0.000777,-0.00136
15.457729,-0.000794,-0.00139
15.467734,-0.000811,-0.001419
15.477739,-0.000828,-0.001449
15.487744,-0.000845,-0.001478
15.497749,-0.000861,-0.001508
15.507754,-0.000878,-0.001537
15.517759,-0.000895,-0.001566
15.527764,-0.000912,-0.001595
15.537769,-0.000928,-0.001624
15.547774,-0.000945,-0.001653
15.557779,-0.000961,-0.001682
15.567784,-0.000978,-0.001711
15.577789,-0.000994,-0.00174
15.587794,-0.001011,-0.001769
15.597799,-0.001027,-0.001798
15.607804,-0.001044,-0.001826
15.617809,-0.00106,-0.001855
15.627814,-0.001076,-0.001883
15.637819,-0.001092,-0.001912
15.647824,-0.001108,-0.00194
15.657829,-0.001125,-0.001968
15.667834,-0.001141,-0.001996
15.677839,-0.001157,-0.002024
15.687844,-0.001173,-0.002052
15.697849,-0.001189,-0.00208
15.707854,-0.001205,-0.002108
15.717859,-0.001221,-0.002136
15.727864,-0.001236,-0.002164
15.737869,-0.001252,-0.002191
15.747874,-0.001268,-0.002219
15.757879,-0.001284,-0.002246
15.767884,-0.001299,-0.002273
15.777889,-0.001315,-0.002301
15.787894,-0.00133,-0.002328
15.797899,-0.001346,-0.002355
15.807904,-0.001361,-0.002382
15.817909,-0.001376,-0.002409
15.827914,-0.001392,-0.002436
15.837919,-0.001407,-0.002462
15.847924,-0.001422,-0.002489
15.857929,-0.001437,-0.002515
15.867934,-0.001452,-0.002542
15.877939,-0.001467,-0.002568
15.887944,-0.001482,-0.002594
15.897949,-0.001497,-0.00262
15.907954,-0.001512,-0.002646
15.917959,-0.001527,-0.002672
15.927964,-0.001542,-0.002698
15.937969,-0.001556,-0.002723
15.947974,-0.001571,-0.002749
15.957979,-0.001585,-0.002774
15.967984,-0.0016,-0.0028
15.977989,-0.001614,-0.002825
15.987994,-0.001629,-0.00285
15.997999,-0.001643,-0.002875
16.008004,-0.001657,-0.0029
16.018009,-0.001671,-0.002925
16.028014,-0.001685,-0.002949
16.038019,-0.001699,-0.002974
16.048024,-0.001713,-0.002998
16.058029,-0.001727,-0.003023
16.068034,-0.001741,-0.003047
16.078039,-0.001755,-0.003071
16.088044,-0.001769,-0.003095
16.098049,-0.001782,-0.003119
16.108054,-0.001796,-0.003142
16.118059,-0.001809,-0.003166
16.128064,-0.001823,-0.003189
16.138069,-0.001836,-0.003213
16.148074,-0.001849,-0.003236
16.158079,-0.001862,-0.003259
16.168084,-0.001875,-0.003282
16.178089,-0.001888,-0.003305
16.188094,-0.001901,-0.003327
16.198099,-0.001914,-0.00335
16.208104,-0.001927,-0.003372
16.218109,-0.00194,-0.003395
16.228114,-0.001952,-0.003417
16.238119,-0.001965,-0.003439
16.248124,-0.001978,-0.003461
16.258129,-0.00199,-0.003482
16.268134,-0.002002,-0.003504
16.278139,-0.002015,-0.003526
16.288144,-0.002027,-0.003547
16.298149,-0.002039,-0.003568
16.308154,-0.002051,-0.003589
16.318159,-0.002063,-0.00361
16.328164,-0.002075,-0.003631
16.338169,-0.002086,-0.003651
16.348174,-0.002098,-0.003672
16.358179,-0.00211,-0.003692
16.368184,-0.002121,-0.003712
16.378189,-0.002133,-0.003732
16.388194,-0.002144,-0.003752
16.398199,-0.002155,-0.003772
16.408204,-0.002167,-0.003792
16.418209,-0.002178,-0.003811
16.428214,-0.002189,-0.00383
16.438219,-0.0022,-0.003849
16.448224,-0.002211,-0.003868
16.458229,-0.002221,-0.003887
16.468234,-0.002232,-0.003906
16.478239,-0.002243,-0.003924
16.488244,-0.002253,-0.003943
16.498249,-0.002263,-0.003961
16.508254,-0.002274,-0.003979
16.518259,-0.002284,-0.003997
16.528264,-0.002294,-0.004015
16.538269,-0.002304,-0.004032
16.548274,-0.002314,-0.00405
16.558279,-0.002324,-0.004067
16.568284,-0.002334,-0.004084
16.578289,-0.002343,-0.004101
16.588294,-0.002353,-0.004118
16.598299,-0.002363,-0.004134
16.608304,-0.002372,-0.004151
16.618309,-0.002381,-0.004167
16.628314,-0.00239,-0.004183
16.638319,-0.0024,-0.004199
16.648324,-0.002409,-0.004215
16.658329,-0.002418,-0.004231
16.668334,-0.002426,-0.004246
16.678339,-0.002435,-0.004261
16.688344,-0.002444,-0.004276
16.698349,-0.002452,-0.004291
16.708354,-0.002461,-0.004306
16.718359,-0.002469,-0.004321
16.728364,-0.002477,-0.004335
16.738369,-0.002485,-0.00435
16.748374,-0.002494,-0.004364
16.758379,-0.002501,-0.004378
16.768384,-0.002509,-0.004391
16.778389,-0.002517,-0.004405
16.788394,-0.002525,-0.004418
16.798399,-0.002532,-0.004432
16.808404,-0.00254,-0.004445
16.818409,-0.002547,-0.004457
16.828414,-0.002554,-0.00447
16.838419,-0.002562,-0.004483
16.848424,-0.002569,-0.004495
16.858429,-0.002576,-0.004507
16.868434,-0.002582,-0.004519
16.878439,-0.002589,-0.004531
16.888444,-0.002596,-0.004543
16.898449,-0.002602,-0.004554
16.908454,-0.002609,-0.004565
16.918459,-0.002615,-0.004577
16.928464,-0.002621,-0.004587
16.938469,-0.002628,-0.004598
16.948474,-0.002634,-0.004609
16.958479,-0.002639,-0.004619
16.968484,-0.002645,-0.004629
16.978489,-0.002651,-0.004639
16.988494,-0.002657,-0.004649
16.998499,-0.002662,-0.004659
17.008504,-0.002668,-0.004668
17.018509,-0.002673,-0.004677
17.028514,-0.002678,-0.004687
17.038519,-0.002683,-0.004695
17.048524,-0.002688,-0.004704
17.058529,-0.002693,-0.004713
17.068534,-0.002698,-0.004721
17.078539,-0.002702,-0.004729
17.088544,-0.002707,-0.004737
17.098549,-0.002711,-0.004745
17.108554,-0.002716,-0.004753
17.118559,-0.00272,-0.00476
17.128564,-0.002724,-0.004767
17.138569,-0.002728,-0.004774
17.148574,-0.002732,-0.004781
17.158579,-0.002736,-0.004788
17.168584,-0.00274,-0.004794
17.178589,-0.002743,-0.0048
17.188594,-0.002747,-0.004807
17.198599,-0.00275,-0.004812
17.208604,-0.002753,-0.004818
17.218609,-0.002756,-0.004824
17.228614,-0.002759,-0.004829
17.238619,-0.002762,-0.004834
17.248624,-0.002765,-0.004839
17.258629,-0.002768,-0.004844
17.268634,-0.00277,-0.004848
17.278639,-0.002773,-0.004853
17.288644,-0.002775,-0.004857
17.298649,-0.002778,-0.004861
17.308654,-0.00278,-0.004865
17.318659,-0.002782,-0.004868
17.328664,-0.002784,-0.004872
17.338669,-0.002786,-0.004875
17.348674,-0.002787,-0.004878
17.358679,-0.002789,-0.004881
17.368684,-0.00279,-0.004883
17.378689,-0.002792,-0.004886
17.388694,-0.002793,-0.004888
17.398699,-0.002794,-0.00489
17.408704,-0.002795,-0.004892
17.418709,-0.002796,-0.004894
17.428714,-0.002797,-0.004895
17.438719,-0.002798,-0.004896
17.448724,-0.002799,-0.004897
17.458729,-0.002799,-0.004898
17.468734,-0.002799,-0.004899
17.478739,-0.0028,-0.0049
17.488744,-0.0028,-0.0049
17.498749,-0.0028,-0.0049
17.508754,-0.0028,-0.0049
17.518759,-0.0028,-0.0049
17.528764,-0.0028,-0.004899
17.538769,-0.002799,-0.004899
17.548774,-0.002799,-0.004898
17.558779,-0.002798,-0.004897
17.568784,-0.002797,-0.004895
17.578789,-0.002797,-0.004894
17.588794,-0.002796,-0.004892
17.598799,-0.002795,-0.004891
17.608804,-0.002793,-0.004889
17.618809,-0.002792,-0.004886
17.628814,-0.002791,-0.004884
17.638819,-0.002789,-0.004881
17.648824,-0.002788,-0.004879
17.658829,-0.002786,-0.004876
17.668834,-0.002784,-0.004872
17.678839,-0.002782,-0.004869
17.688844,-0.00278,-0.004866
17.698849,-0.002778,-0.004862
17.708854,-0.002776,-0.004858
17.718859,-0.002774,-0.004854
17.728864,-0.002771,-0.004849
17.738869,-0.002769,-0.004845
17.748874,-0.002766,-0.00484
17.758879,-0.002763,-0.004835
17.768884,-0.00276,-0.00483
17.778889,-0.002757,-0.004825
17.788894,-0.002754,-0.004819
17.798899,-0.002751,-0.004814
17.808904,-0.002747,-0.004808
17.818909,-0.002744,-0.004802
17.828914,-0.00274,-0.004796
17.838919,-0.002737,-0.004789
17.848924,-0.002733,-0.004783
17.858929,-0.002729,-0.004776
17.868934,-0.002725,-0.004769
17.878939,-0.002721,-0.004762
17.888944,-0.002717,-0.004754
17.898949,-0.002712,-0.004747
17.908954,-0.002708,-0.004739
17.918959,-0.002704,-0.004731
17.928964,-0.002699,-0.004723
17.938969,-0.002694,-0.004715
17.948974,-0.002689,-0.004706
17.958979,-0.002684,-0.004698
17.968984,-0.002679,-0.004689
17.978989,-0.002674,-0.00468
17.988994,-0.002669,-0.004671
17.998999,-0.002664,-0.004661
18.009005,-0.002658,-0.004652
18.01901,-0.002652,-0.004642
18.029015,-0.002647,-0.004632
18.03902,-0.002641,-0.004622
18.049025,-0.002635,-0.004611
18.05903,-0.002629,-0.004601
18.069035,-0.002623,-0.00459
18.07904,-0.002617,-0.004579
18.089045,-0.00261,-0.004568
18.09905,-0.002604,-0.004557
18.109055,-0.002597,-0.004546
18.11906,-0.002591,-0.004534
18.129065,-0.002584,-0.004522
18.13907,-0.002577,-0.00451
18.149075,-0.00257,-0.004498
18.15908,-0.002563,-0.004486
18.169085,-0.002556,-0.004473
18.17909,-0.002549,-0.004461
18.189095,-0.002542,-0.004448
18.1991,-0.002534,-0.004435
18.209105,-0.002527,-0.004422
18.21911,-0.002519,-0.004408
18.229115,-0.002511,-0.004395
18.23912,-0.002503,-0.004381
18.249125,-0.002496,-0.004367
18.25913,-0.002487,-0.004353
18.269135,-0.002479,-0.004339
18.27914,-0.002471,-0.004324
18.289145,-0.002463,-0.00431
18.29915,-0.002454,-0.004295
18.309155,-0.002446,-0.00428
18.31916,-0.002437,-0.004265
18.329165,-0.002429,-0.00425
18.33917,-0.00242,-0.004235
18.349175,-0.002411,-0.004219
18.35918,-0.002402,-0.004203
18.369185,-0.002393,-0.004187
18.37919,-0.002384,-0.004171
18.389195,-0.002374,-0.004155
18.3992,-0.002365,-0.004139
18.409205,-0.002355,-0.004122
18.41921,-0.002346,-0.004105
18.429215,-0.002336,-0.004088
18.43922,-0.002326,-0.004071
18.449225,-0.002317,-0.004054
18.45923,-0.002307,-0.004037
18.469235,-0.002297,-0.004019
18.47924,-0.002287,-0.004001
18.489245,-0.002276,-0.003984
18.49925,-0.002266,-0.003966
18.509255,-0.002256,-0.003947
18.51926,-0.002245,-0.003929
18.529265,-0.002235,-0.003911
18.53927,-0.002224,-0.003892
18.549275,-0.002213,-0.003873
18.55928,-0.002202,-0.003854
18.569285,-0.002191,-0.003835
18.57929,-0.00218,-0.003816
18.589295,-0.002169,-0.003796
18.5993,-0.002158,-0.003777
18.609305,-0.002147,-0.003757
18.61931,-0.002136,-0.003737
18.629315,-0.002124,-0.003717
18.63932,-0.002113,-0.003697
18.649325,-0.002101,-0.003677
18.65933,-0.002089,-0.003656
18.669335,-0.002078,-0.003636
18.67934,-0.002066,-0.003615
18.689345,-0.002054,-0.003594
18.69935,-0.002042,-0.003573
18.709355,-0.00203,-0.003552
18.71936,-0.002018,-0.003531
18.729365,-0.002005,-0.003509
18.73937,-0.001993,-0.003488
18.749375,-0.001981,-0.003466
18.75938,-0.001968,-0.003444
18.769385,-0.001956,-0.003422
18.77939,-0.001943,-0.0034
18.789395,-0.00193,-0.003378
18.7994,-0.001918,-0.003356
18.809405,-0.001905,-0.003333
18.81941,-0.001892,-0.00331
18.829415,-0.001879,-0.003288
18.83942,-0.001866,-0.003265
18.849425,-0.001852,-0.003242
18.85943,-0.001839,-0.003219
18.869435,-0.001826,-0.003195
18.87944,-0.001813,-0.003172
18.889445,-0.001799,-0.003148
18.89945,-0.001786,-0.003125
18.909455,-0.001772,-0.003101
18.91946,-0.001758,-0.003077
18.929465,-0.001745,-0.003053
18.93947,-0.001731,-0.003029
18.949475,-0.001717,-0.003005
18.95948,-0.001703,-0.00298
18.969485,-0.001689,-0.002956
18.97949,-0.001675,-0.002931
18.989495,-0.001661,-0.002906
18.9995,-0.001647,-0.002881
19.009505,-0.001632,-0.002856
19.01951,-0.001618,-0.002831
19.029515,-0.001604,-0.002806
19.03952,-0.001589,-0.002781
19.049525,-0.001575,-0.002755
19.05953,-0.00156,-0.00273
19.069535,-0.001545,-0.002704
19.07954,-0.001531,-0.002679
19.089545,-0.001516,-0.002653
19.09955,-0.001501,-0.002627
19.109555,-0.001486,-0.002601
19.11956,-0.001471,-0.002575
19.129565,-0.001456,-0.002548
19.13957,-0.001441,-0.002522
19.149575,-0.001426,-0.002495
19.15958,-0.001411,-0.002469
19.169585,-0.001396,-0.002442
19.17959,-0.00138,-0.002415
19.189595,-0.001365,-0.002389
19.1996,-0.00135,-0.002362
19.209605,-0.001334,-0.002335
19.21961,-0.001319,-0.002308
19.229615,-0.001303,-0.00228
19.23962,-0.001287,-0.002253
19.249625,-0.001272,-0.002226
19.25963,-0.001256,-0.002198
19.269635,-0.00124,-0.002171
19.27964,-0.001224,-0.002143
19.289645,-0.001209,-0.002115
19.29965,-0.001193,-0.002087
19.309655,-0.001177,-0.002059
19.31966,-0.001161,-0.002031
19.329665,-0.001145,-0.002003
19.33967,-0.001129,-0.001975
19.349675,-0.001113,-0.001947
19.35968,-0.001096,-0.001919
19.369685,-0.00108,-0.00189
19.37969,-0.001064,-0.001862
19.389695,-0.001048,-0.001833
19.3997,-0.001031,-0.001805
19.409705,-0.001015,-0.001776
19.41971,-0.000998,-0.001747
19.429715,-0.000982,-0.001718
19.43972,-0.000965,-0.00169
19.449725,-0.000949,-0.001661
19.45973,-0.000932,-0.001632
19.469735,-0.000916,-0.001603
19.47974,-0.000899,-0.001573
19.489745,-0.000882,-0.001544
19.49975,-0.000866,-0.001515
19.509755,-0.000849,-0.001486
19.51976,-0.000832,-0.001456
19.529765,-0.000815,-0.001427
19.53977,-0.000798,-0.001397
19.549775,-0.000782,-0.001368
19.55978,-0.000765,-0.001338
19.569785,-0.000748,-0.001308
19.57979,-0.000731,-0.001279
19.589795,-0.000714,-0.001249
19.5998,-0.000697,-0.001219
19.609805,-0.00068,-0.001189
19.61981,-0.000663,-0.001159
19.629815,-0.000645,-0.001129
19.63982,-0.000628,-0.001099
19.649825,-0.000611,-0.001069
19.65983,-0.000594,-0.001039
19.669835,-0.000577,-0.001009
19.67984,-0.000559,-0.000979
19.689845,-0.000542,-0.000949
19.69985,-0.000525,-0.000919
19.709855,-0.000508,-0.000888
19.71986,-0.00049,-0.000858
19.729865,-0.000473,-0.000828
19.73987,-0.000456,-0.000797
19.749875,-0.000438,-0.000767
19.75988,-0.000421,-0.000736
19.769885,-0.000403,-0.000706
19.77989,-0.000386,-0.000676
19.789895,-0.000369,-0.000645
19.7999,-0.000351,-0.000614
19.809905,-0.000334,-0.000584
19.81991,-0.000316,-0.000553
19.829915,-0.000299,-0.000523
19.83992,-0.000281,-0.000492
19.849925,-0.000264,-0.000461
19.85993,-0.000246,-0.000431
19.869935,-0.000229,-0.0004
19.87994,-0.000211,-0.000369
19.889945,-0.000193,-0.000339
19.89995,-0.000176,-0.000308
19.909955,-0.000158,-0.000277
19.91996,-0.000141,-0.000246
19.929965,-0.000123,-0.000216
19.93997,-0.000106,-0.000185
19.949975,-8.80E-05,-0.000154
19.95998,-7.00E-05,-0.000123
19.969985,-5.30E-05,-9.20E-05
19.97999,-3.50E-05,-6.20E-05
19.989995,-1.80E-05,-3.10E-05
20,0,0
