Time (s),Normal Strain,Shear Strain
0.0,0.0,0.0
0.010005,2e-05,3.5e-05
0.02001,4e-05,6.9e-05
0.030015,6e-05,0.000104
0.04002,8e-05,0.000138
0.050025,0.000101,0.000173
0.06003,0.000121,0.000207
0.070035,0.000141,0.000242
0.08004,0.000161,0.000276
0.090045,0.000181,0.000311
0.10005,0.000201,0.000346
0.110055,0.000221,0.00038
0.12006,0.000241,0.000415
0.130065,0.000261,0.000449
0.14007,0.000281,0.000483
0.150075,0.000301,0.000518
0.16008,0.000321,0.000552
0.170085,0.000341,0.000587
0.18009,0.000361,0.000621
0.190095,0.000381,0.000655
0.2001,0.000401,0.00069
0.210105,0.000421,0.000724
0.22011,0.000441,0.000758
0.230115,0.000461,0.000792
0.24012,0.000481,0.000827
0.250125,0.000501,0.000861
0.26013,0.000521,0.000895
0.270135,0.000541,0.000929
0.28014,0.00056,0.000963
0.290145,0.00058,0.000997
0.30015,0.0006,0.001031
0.310155,0.00062,0.001065
0.32016,0.000639,0.001099
0.330165,0.000659,0.001133
0.34017,0.000679,0.001167
0.350175,0.000698,0.0012
0.36018,0.000718,0.001234
0.370185,0.000738,0.001268
0.38019,0.000757,0.001301
0.390195,0.000777,0.001335
0.4002,0.000796,0.001368
0.410205,0.000816,0.001402
0.42021,0.000835,0.001435
0.430215,0.000855,0.001469
0.44022,0.000874,0.001502
0.450225,0.000893,0.001535
0.46023,0.000913,0.001568
0.470235,0.000932,0.001601
0.48024,0.000951,0.001635
0.490245,0.00097,0.001668
0.50025,0.000989,0.0017
0.510255,0.001008,0.001733
0.52026,0.001028,0.001766
0.530265,0.001047,0.001799
0.54027,0.001066,0.001831
0.550275,0.001084,0.001864
0.56028,0.001103,0.001896
0.570285,0.001122,0.001929
0.58029,0.001141,0.001961
0.590295,0.00116,0.001993
0.6003,0.001179,0.002026
0.610305,0.001197,0.002058
0.62031,0.001216,0.00209
0.630315,0.001234,0.002122
0.64032,0.001253,0.002154
0.650325,0.001271,0.002185
0.66033,0.00129,0.002217
0.670335,0.001308,0.002249
0.68034,0.001327,0.00228
0.690345,0.001345,0.002312
0.70035,0.001363,0.002343
0.710355,0.001381,0.002374
0.72036,0.001399,0.002405
0.730365,0.001417,0.002436
0.74037,0.001435,0.002467
0.750375,0.001453,0.002498
0.76038,0.001471,0.002529
0.770385,0.001489,0.00256
0.78039,0.001507,0.00259
0.790395,0.001525,0.002621
0.8004,0.001542,0.002651
0.810405,0.00156,0.002681
0.82041,0.001577,0.002711
0.830415,0.001595,0.002741
0.84042,0.001612,0.002771
0.850425,0.00163,0.002801
0.86043,0.001647,0.002831
0.870435,0.001664,0.00286
0.88044,0.001681,0.00289
0.890445,0.001698,0.002919
0.90045,0.001715,0.002948
0.910455,0.001732,0.002977
0.92046,0.001749,0.003007
0.930465,0.001766,0.003035
0.94047,0.001783,0.003064
0.950475,0.001799,0.003093
0.96048,0.001816,0.003121
0.970485,0.001833,0.00315
0.98049,0.001849,0.003178
0.990495,0.001865,0.003206
1.0005,0.001882,0.003234
1.010505,0.001898,0.003262
1.02051,0.001914,0.00329
1.030515,0.00193,0.003318
1.04052,0.001946,0.003345
1.050525,0.001962,0.003372
1.06053,0.001978,0.0034
1.070535,0.001994,0.003427
1.08054,0.002009,0.003454
1.090545,0.002025,0.003481
1.10055,0.002041,0.003507
1.110555,0.002056,0.003534
1.12056,0.002071,0.00356
1.130565,0.002087,0.003587
1.14057,0.002102,0.003613
1.150575,0.002117,0.003639
1.16058,0.002132,0.003665
1.170585,0.002147,0.00369
1.18059,0.002162,0.003716
1.190595,0.002177,0.003741
1.2006,0.002191,0.003767
1.210605,0.002206,0.003792
1.22061,0.002221,0.003817
1.230615,0.002235,0.003841
1.24062,0.002249,0.003866
1.250625,0.002264,0.003891
1.26063,0.002278,0.003915
1.270635,0.002292,0.003939
1.28064,0.002306,0.003963
1.290645,0.00232,0.003987
1.30065,0.002334,0.004011
1.310655,0.002347,0.004034
1.32066,0.002361,0.004058
1.330665,0.002374,0.004081
1.34067,0.002388,0.004104
1.350675,0.002401,0.004127
1.36068,0.002415,0.00415
1.370685,0.002428,0.004173
1.38069,0.002441,0.004195
1.390695,0.002454,0.004217
1.4007,0.002467,0.004239
1.410705,0.002479,0.004261
1.42071,0.002492,0.004283
1.430715,0.002505,0.004305
1.44072,0.002517,0.004326
1.450725,0.002529,0.004347
1.46073,0.002542,0.004368
1.470735,0.002554,0.004389
1.48074,0.002566,0.00441
1.490745,0.002578,0.004431
1.50075,0.00259,0.004451
1.510755,0.002602,0.004471
1.52076,0.002613,0.004491
1.530765,0.002625,0.004511
1.54077,0.002636,0.004531
1.550775,0.002648,0.00455
1.56078,0.002659,0.00457
1.570785,0.00267,0.004589
1.58079,0.002681,0.004608
1.590795,0.002692,0.004627
1.6008,0.002703,0.004645
1.610805,0.002713,0.004664
1.62081,0.002724,0.004682
1.630815,0.002735,0.0047
1.64082,0.002745,0.004718
1.650825,0.002755,0.004736
1.66083,0.002765,0.004753
1.670835,0.002775,0.00477
1.68084,0.002785,0.004787
1.690845,0.002795,0.004804
1.70085,0.002805,0.004821
1.710855,0.002815,0.004838
1.72086,0.002824,0.004854
1.730865,0.002834,0.00487
1.74087,0.002843,0.004886
1.750875,0.002852,0.004902
1.76088,0.002861,0.004917
1.770885,0.00287,0.004933
1.78089,0.002879,0.004948
1.790895,0.002888,0.004963
1.8009,0.002896,0.004978
1.810905,0.002905,0.004992
1.82091,0.002913,0.005007
1.830915,0.002921,0.005021
1.84092,0.00293,0.005035
1.850925,0.002938,0.005049
1.86093,0.002945,0.005063
1.870935,0.002953,0.005076
1.88094,0.002961,0.005089
1.890945,0.002969,0.005102
1.90095,0.002976,0.005115
1.910955,0.002983,0.005128
1.92096,0.002991,0.00514
1.930965,0.002998,0.005152
1.94097,0.003005,0.005164
1.950975,0.003011,0.005176
1.96098,0.003018,0.005188
1.970985,0.003025,0.005199
1.98099,0.003031,0.00521
1.990995,0.003038,0.005221
2.001001,0.003044,0.005232
2.011006,0.00305,0.005242
2.021011,0.003056,0.005253
2.031016,0.003062,0.005263
2.041021,0.003068,0.005273
2.051026,0.003074,0.005283
2.061031,0.003079,0.005292
2.071036,0.003084,0.005301
2.081041,0.00309,0.005311
2.091046,0.003095,0.005319
2.101051,0.0031,0.005328
2.111056,0.003105,0.005337
2.121061,0.00311,0.005345
2.131066,0.003114,0.005353
2.141071,0.003119,0.005361
2.151076,0.003123,0.005368
2.161081,0.003128,0.005376
2.171086,0.003132,0.005383
2.181091,0.003136,0.00539
2.191096,0.00314,0.005397
2.201101,0.003144,0.005403
2.211106,0.003147,0.00541
2.221111,0.003151,0.005416
2.231116,0.003154,0.005422
2.241121,0.003158,0.005427
2.251126,0.003161,0.005433
2.261131,0.003164,0.005438
2.271136,0.003167,0.005443
2.281141,0.00317,0.005448
2.291146,0.003172,0.005453
2.301151,0.003175,0.005457
2.311156,0.003178,0.005461
2.321161,0.00318,0.005465
2.331166,0.003182,0.005469
2.341171,0.003184,0.005473
2.351176,0.003186,0.005476
2.361181,0.003188,0.005479
2.371186,0.00319,0.005482
2.381191,0.003191,0.005485
2.391196,0.003193,0.005487
2.401201,0.003194,0.005489
2.411206,0.003195,0.005491
2.421211,0.003196,0.005493
2.431216,0.003197,0.005495
2.441221,0.003198,0.005496
2.451226,0.003198,0.005497
2.461231,0.003199,0.005498
2.471236,0.003199,0.005499
2.481241,0.0032,0.0055
2.491246,0.0032,0.0055
2.501251,0.0032,0.0055
2.511256,0.0032,0.0055
2.521261,0.0032,0.0055
2.531266,0.003199,0.005499
2.541271,0.003199,0.005498
2.551276,0.003198,0.005497
2.561281,0.003198,0.005496
2.571286,0.003197,0.005494
2.581291,0.003196,0.005493
2.591296,0.003195,0.005491
2.601301,0.003194,0.005489
2.611306,0.003192,0.005487
2.621311,0.003191,0.005484
2.631316,0.003189,0.005481
2.641321,0.003187,0.005478
2.651326,0.003186,0.005475
2.661331,0.003184,0.005472
2.671336,0.003181,0.005468
2.681341,0.003179,0.005464
2.691346,0.003177,0.00546
2.701351,0.003174,0.005456
2.711356,0.003172,0.005452
2.721361,0.003169,0.005447
2.731366,0.003166,0.005442
2.741371,0.003163,0.005437
2.751376,0.00316,0.005432
2.761381,0.003157,0.005426
2.771386,0.003154,0.00542
2.781391,0.00315,0.005414
2.791396,0.003147,0.005408
2.801401,0.003143,0.005402
2.811406,0.003139,0.005395
2.821411,0.003135,0.005388
2.831416,0.003131,0.005381
2.841421,0.003127,0.005374
2.851426,0.003122,0.005366
2.861431,0.003118,0.005359
2.871436,0.003113,0.005351
2.881441,0.003109,0.005343
2.891446,0.003104,0.005334
2.901451,0.003099,0.005326
2.911456,0.003094,0.005317
2.921461,0.003088,0.005308
2.931466,0.003083,0.005299
2.941471,0.003078,0.00529
2.951476,0.003072,0.00528
2.961481,0.003066,0.00527
2.971486,0.003061,0.00526
2.981491,0.003055,0.00525
2.991496,0.003049,0.00524
3.001501,0.003042,0.005229
3.011506,0.003036,0.005218
3.021511,0.00303,0.005207
3.031516,0.003023,0.005196
3.041521,0.003017,0.005185
3.051526,0.00301,0.005173
3.061531,0.003003,0.005161
3.071536,0.002996,0.005149
3.081541,0.002989,0.005137
3.091546,0.002982,0.005124
3.101551,0.002974,0.005112
3.111556,0.002967,0.005099
3.121561,0.002959,0.005086
3.131566,0.002951,0.005073
3.141571,0.002944,0.005059
3.151576,0.002936,0.005045
3.161581,0.002927,0.005032
3.171586,0.002919,0.005018
3.181591,0.002911,0.005003
3.191596,0.002903,0.004989
3.201601,0.002894,0.004974
3.211606,0.002885,0.004959
3.221611,0.002877,0.004944
3.231616,0.002868,0.004929
3.241621,0.002859,0.004914
3.251626,0.00285,0.004898
3.261631,0.002841,0.004882
3.271636,0.002831,0.004866
3.281641,0.002822,0.00485
3.291646,0.002812,0.004834
3.301651,0.002803,0.004817
3.311656,0.002793,0.0048
3.321661,0.002783,0.004783
3.331666,0.002773,0.004766
3.341671,0.002763,0.004749
3.351676,0.002753,0.004731
3.361681,0.002742,0.004713
3.371686,0.002732,0.004695
3.381691,0.002721,0.004677
3.391696,0.002711,0.004659
3.401701,0.0027,0.004641
3.411706,0.002689,0.004622
3.421711,0.002678,0.004603
3.431716,0.002667,0.004584
3.441721,0.002656,0.004565
3.451726,0.002645,0.004546
3.461731,0.002633,0.004526
3.471736,0.002622,0.004506
3.481741,0.00261,0.004486
3.491746,0.002599,0.004466
3.501751,0.002587,0.004446
3.511756,0.002575,0.004426
3.521761,0.002563,0.004405
3.531766,0.002551,0.004384
3.541771,0.002539,0.004363
3.551776,0.002526,0.004342
3.561781,0.002514,0.004321
3.571786,0.002501,0.004299
3.581791,0.002489,0.004278
3.591796,0.002476,0.004256
3.601801,0.002463,0.004234
3.611806,0.00245,0.004212
3.621811,0.002437,0.004189
3.631816,0.002424,0.004167
3.641821,0.002411,0.004144
3.651826,0.002398,0.004121
3.661831,0.002385,0.004098
3.671836,0.002371,0.004075
3.681841,0.002358,0.004052
3.691846,0.002344,0.004029
3.701851,0.00233,0.004005
3.711856,0.002316,0.003981
3.721861,0.002302,0.003957
3.731866,0.002288,0.003933
3.741871,0.002274,0.003909
3.751876,0.00226,0.003885
3.761881,0.002246,0.00386
3.771886,0.002231,0.003835
3.781891,0.002217,0.00381
3.791896,0.002202,0.003785
3.801901,0.002188,0.00376
3.811906,0.002173,0.003735
3.821911,0.002158,0.003709
3.831916,0.002143,0.003684
3.841921,0.002128,0.003658
3.851926,0.002113,0.003632
3.861931,0.002098,0.003606
3.871936,0.002083,0.00358
3.881941,0.002068,0.003554
3.891946,0.002052,0.003527
3.901951,0.002037,0.003501
3.911956,0.002021,0.003474
3.921961,0.002006,0.003447
3.931966,0.00199,0.00342
3.941971,0.001974,0.003393
3.951976,0.001958,0.003366
3.961981,0.001942,0.003338
3.971986,0.001926,0.003311
3.981991,0.00191,0.003283
3.991996,0.001894,0.003255
4.002001,0.001878,0.003227
4.012006,0.001861,0.003199
4.022011,0.001845,0.003171
4.032016,0.001828,0.003143
4.042021,0.001812,0.003114
4.052026,0.001795,0.003086
4.062031,0.001779,0.003057
4.072036,0.001762,0.003028
4.082041,0.001745,0.002999
4.092046,0.001728,0.00297
4.102051,0.001711,0.002941
4.112056,0.001694,0.002912
4.122061,0.001677,0.002882
4.132066,0.00166,0.002853
4.142071,0.001643,0.002823
4.152076,0.001625,0.002794
4.162081,0.001608,0.002764
4.172086,0.001591,0.002734
4.182091,0.001573,0.002704
4.192096,0.001556,0.002674
4.202101,0.001538,0.002643
4.212106,0.00152,0.002613
4.222111,0.001503,0.002582
4.232116,0.001485,0.002552
4.242121,0.001467,0.002521
4.252126,0.001449,0.00249
4.262131,0.001431,0.00246
4.272136,0.001413,0.002429
4.282141,0.001395,0.002397
4.292146,0.001377,0.002366
4.302151,0.001359,0.002335
4.312156,0.00134,0.002304
4.322161,0.001322,0.002272
4.332166,0.001304,0.002241
4.342171,0.001285,0.002209
4.352176,0.001267,0.002177
4.362181,0.001248,0.002146
4.372186,0.00123,0.002114
4.382191,0.001211,0.002082
4.392196,0.001193,0.00205
4.402201,0.001174,0.002018
4.412206,0.001155,0.001985
4.422211,0.001136,0.001953
4.432216,0.001118,0.001921
4.442221,0.001099,0.001888
4.452226,0.00108,0.001856
4.462231,0.001061,0.001823
4.472236,0.001042,0.001791
4.482241,0.001023,0.001758
4.492246,0.001004,0.001725
4.502251,0.000985,0.001692
4.512256,0.000965,0.001659
4.522261,0.000946,0.001626
4.532266,0.000927,0.001593
4.542271,0.000908,0.00156
4.552276,0.000888,0.001527
4.562281,0.000869,0.001494
4.572286,0.00085,0.00146
4.582291,0.00083,0.001427
4.592296,0.000811,0.001394
4.602301,0.000791,0.00136
4.612306,0.000772,0.001327
4.622311,0.000752,0.001293
4.632316,0.000733,0.001259
4.642321,0.000713,0.001226
4.652326,0.000693,0.001192
4.662331,0.000674,0.001158
4.672336,0.000654,0.001124
4.682341,0.000634,0.00109
4.692346,0.000615,0.001057
4.702351,0.000595,0.001023
4.712356,0.000575,0.000989
4.722361,0.000555,0.000955
4.732366,0.000536,0.000921
4.742371,0.000516,0.000886
4.752376,0.000496,0.000852
4.762381,0.000476,0.000818
4.772386,0.000456,0.000784
4.782391,0.000436,0.00075
4.792396,0.000416,0.000715
4.802401,0.000396,0.000681
4.812406,0.000376,0.000647
4.822411,0.000356,0.000612
4.832416,0.000336,0.000578
4.842421,0.000316,0.000544
4.852426,0.000296,0.000509
4.862431,0.000276,0.000475
4.872436,0.000256,0.00044
4.882441,0.000236,0.000406
4.892446,0.000216,0.000371
4.902451,0.000196,0.000337
4.912456,0.000176,0.000302
4.922461,0.000156,0.000268
4.932466,0.000136,0.000233
4.942471,0.000116,0.000199
4.952476,9.6e-05,0.000164
4.962481,7.5e-05,0.00013
4.972486,5.5e-05,9.5e-05
4.982491,3.5e-05,6.1e-05
4.992496,1.5e-05,2.6e-05
5.002501,-5e-06,-9e-06
5.012506,-2.5e-05,-4.3e-05
5.022511,-4.5e-05,-7.8e-05
5.032516,-6.5e-05,-0.000112
5.042521,-8.5e-05,-0.000147
5.052526,-0.000106,-0.000181
5.062531,-0.000126,-0.000216
5.072536,-0.000146,-0.000251
5.082541,-0.000166,-0.000285
5.092546,-0.000186,-0.00032
5.102551,-0.000206,-0.000354
5.112556,-0.000226,-0.000389
5.122561,-0.000246,-0.000423
5.132566,-0.000266,-0.000458
5.142571,-0.000286,-0.000492
5.152576,-0.000306,-0.000526
5.162581,-0.000326,-0.000561
5.172586,-0.000346,-0.000595
5.182591,-0.000366,-0.00063
5.192596,-0.000386,-0.000664
5.202601,-0.000406,-0.000698
5.212606,-0.000426,-0.000733
5.222611,-0.000446,-0.000767
5.232616,-0.000466,-0.000801
5.242621,-0.000486,-0.000835
5.252626,-0.000506,-0.000869
5.262631,-0.000526,-0.000903
5.272636,-0.000545,-0.000938
5.282641,-0.000565,-0.000972
5.292646,-0.000585,-0.001006
5.302651,-0.000605,-0.00104
5.312656,-0.000625,-0.001074
5.322661,-0.000644,-0.001107
5.332666,-0.000664,-0.001141
5.342671,-0.000684,-0.001175
5.352676,-0.000703,-0.001209
5.362681,-0.000723,-0.001243
5.372686,-0.000743,-0.001276
5.382691,-0.000762,-0.00131
5.392696,-0.000782,-0.001343
5.402701,-0.000801,-0.001377
5.412706,-0.000821,-0.00141
5.422711,-0.00084,-0.001444
5.432716,-0.000859,-0.001477
5.442721,-0.000879,-0.00151
5.452726,-0.000898,-0.001543
5.462731,-0.000917,-0.001577
5.472736,-0.000937,-0.00161
5.482741,-0.000956,-0.001643
5.492746,-0.000975,-0.001676
5.502751,-0.000994,-0.001709
5.512756,-0.001013,-0.001741
5.522761,-0.001032,-0.001774
5.532766,-0.001051,-0.001807
5.542771,-0.00107,-0.00184
5.552776,-0.001089,-0.001872
5.562781,-0.001108,-0.001905
5.572786,-0.001127,-0.001937
5.582791,-0.001146,-0.001969
5.592796,-0.001165,-0.002002
5.602801,-0.001183,-0.002034
5.612806,-0.001202,-0.002066
5.622811,-0.001221,-0.002098
5.632816,-0.001239,-0.00213
5.642821,-0.001258,-0.002162
5.652826,-0.001276,-0.002193
5.662831,-0.001295,-0.002225
5.672836,-0.001313,-0.002257
5.682841,-0.001331,-0.002288
5.692846,-0.001349,-0.002319
5.702851,-0.001368,-0.002351
5.712856,-0.001386,-0.002382
5.722861,-0.001404,-0.002413
5.732866,-0.001422,-0.002444
5.742871,-0.00144,-0.002475
5.752876,-0.001458,-0.002506
5.762881,-0.001476,-0.002537
5.772886,-0.001494,-0.002567
5.782891,-0.001511,-0.002598
5.792896,-0.001529,-0.002628
5.802901,-0.001547,-0.002658
5.812906,-0.001564,-0.002689
5.822911,-0.001582,-0.002719
5.832916,-0.001599,-0.002749
5.842921,-0.001617,-0.002779
5.852926,-0.001634,-0.002808
5.862931,-0.001651,-0.002838
5.872936,-0.001668,-0.002868
5.882941,-0.001686,-0.002897
5.892946,-0.001703,-0.002926
5.902951,-0.00172,-0.002956
5.912956,-0.001737,-0.002985
5.922961,-0.001753,-0.003014
5.932966,-0.00177,-0.003043
5.942971,-0.001787,-0.003071
5.952976,-0.001804,-0.0031
5.962981,-0.00182,-0.003128
5.972986,-0.001837,-0.003157
5.982991,-0.001853,-0.003185
5.992996,-0.00187,-0.003213
6.003002,-0.001886,-0.003241
6.013007,-0.001902,-0.003269
6.023012,-0.001918,-0.003297
6.033017,-0.001934,-0.003324
6.043022,-0.00195,-0.003352
6.053027,-0.001966,-0.003379
6.063032,-0.001982,-0.003406
6.073037,-0.001998,-0.003434
6.083042,-0.002013,-0.00346
6.093047,-0.002029,-0.003487
6.103052,-0.002044,-0.003514
6.113057,-0.00206,-0.00354
6.123062,-0.002075,-0.003567
6.133067,-0.002091,-0.003593
6.143072,-0.002106,-0.003619
6.153077,-0.002121,-0.003645
6.163082,-0.002136,-0.003671
6.173087,-0.002151,-0.003697
6.183092,-0.002166,-0.003722
6.193097,-0.00218,-0.003748
6.203102,-0.002195,-0.003773
6.213107,-0.00221,-0.003798
6.223112,-0.002224,-0.003823
6.233117,-0.002239,-0.003848
6.243122,-0.002253,-0.003872
6.253127,-0.002267,-0.003897
6.263132,-0.002281,-0.003921
6.273137,-0.002295,-0.003945
6.283142,-0.002309,-0.003969
6.293147,-0.002323,-0.003993
6.303152,-0.002337,-0.004017
6.313157,-0.002351,-0.00404
6.323162,-0.002364,-0.004064
6.333167,-0.002378,-0.004087
6.343172,-0.002391,-0.00411
6.353177,-0.002405,-0.004133
6.363182,-0.002418,-0.004156
6.373187,-0.002431,-0.004178
6.383192,-0.002444,-0.004201
6.393197,-0.002457,-0.004223
6.403202,-0.00247,-0.004245
6.413207,-0.002482,-0.004267
6.423212,-0.002495,-0.004289
6.433217,-0.002508,-0.00431
6.443222,-0.00252,-0.004331
6.453227,-0.002532,-0.004353
6.463232,-0.002545,-0.004374
6.473237,-0.002557,-0.004395
6.483242,-0.002569,-0.004415
6.493247,-0.002581,-0.004436
6.503252,-0.002593,-0.004456
6.513257,-0.002604,-0.004476
6.523262,-0.002616,-0.004496
6.533267,-0.002628,-0.004516
6.543272,-0.002639,-0.004536
6.553277,-0.00265,-0.004555
6.563282,-0.002662,-0.004575
6.573287,-0.002673,-0.004594
6.583292,-0.002684,-0.004613
6.593297,-0.002695,-0.004631
6.603302,-0.002705,-0.00465
6.613307,-0.002716,-0.004668
6.623312,-0.002727,-0.004686
6.633317,-0.002737,-0.004704
6.643322,-0.002748,-0.004722
6.653327,-0.002758,-0.00474
6.663332,-0.002768,-0.004757
6.673337,-0.002778,-0.004775
6.683342,-0.002788,-0.004792
6.693347,-0.002798,-0.004809
6.703352,-0.002807,-0.004825
6.713357,-0.002817,-0.004842
6.723362,-0.002827,-0.004858
6.733367,-0.002836,-0.004874
6.743372,-0.002845,-0.00489
6.753377,-0.002854,-0.004906
6.763382,-0.002863,-0.004921
6.773387,-0.002872,-0.004937
6.783392,-0.002881,-0.004952
6.793397,-0.00289,-0.004967
6.803402,-0.002898,-0.004982
6.813407,-0.002907,-0.004996
6.823412,-0.002915,-0.00501
6.833417,-0.002923,-0.005025
6.843422,-0.002932,-0.005039
6.853427,-0.00294,-0.005052
6.863432,-0.002947,-0.005066
6.873437,-0.002955,-0.005079
6.883442,-0.002963,-0.005092
6.893447,-0.00297,-0.005105
6.903452,-0.002978,-0.005118
6.913457,-0.002985,-0.005131
6.923462,-0.002992,-0.005143
6.933467,-0.002999,-0.005155
6.943472,-0.003006,-0.005167
6.953477,-0.003013,-0.005179
6.963482,-0.00302,-0.00519
6.973487,-0.003026,-0.005202
6.983492,-0.003033,-0.005213
6.993497,-0.003039,-0.005224
7.003502,-0.003046,-0.005235
7.013507,-0.003052,-0.005245
7.023512,-0.003058,-0.005255
7.033517,-0.003064,-0.005265
7.043522,-0.003069,-0.005275
7.053527,-0.003075,-0.005285
7.063532,-0.00308,-0.005294
7.073537,-0.003086,-0.005304
7.083542,-0.003091,-0.005313
7.093547,-0.003096,-0.005322
7.103552,-0.003101,-0.00533
7.113557,-0.003106,-0.005339
7.123562,-0.003111,-0.005347
7.133567,-0.003116,-0.005355
7.143572,-0.00312,-0.005363
7.153577,-0.003124,-0.00537
7.163582,-0.003129,-0.005378
7.173587,-0.003133,-0.005385
7.183592,-0.003137,-0.005392
7.193597,-0.003141,-0.005398
7.203602,-0.003145,-0.005405
7.213607,-0.003148,-0.005411
7.223612,-0.003152,-0.005417
7.233617,-0.003155,-0.005423
7.243622,-0.003159,-0.005429
7.253627,-0.003162,-0.005434
7.263632,-0.003165,-0.005439
7.273637,-0.003168,-0.005444
7.283642,-0.00317,-0.005449
7.293647,-0.003173,-0.005454
7.303652,-0.003176,-0.005458
7.313657,-0.003178,-0.005462
7.323662,-0.00318,-0.005466
7.333667,-0.003183,-0.00547
7.343672,-0.003185,-0.005473
7.353677,-0.003186,-0.005477
7.363682,-0.003188,-0.00548
7.373687,-0.00319,-0.005483
7.383692,-0.003191,-0.005485
7.393697,-0.003193,-0.005488
7.403702,-0.003194,-0.00549
7.413707,-0.003195,-0.005492
7.423712,-0.003196,-0.005494
7.433717,-0.003197,-0.005495
7.443722,-0.003198,-0.005497
7.453727,-0.003199,-0.005498
7.463732,-0.003199,-0.005499
7.473737,-0.0032,-0.005499
7.483742,-0.0032,-0.0055
7.493747,-0.0032,-0.0055
7.503752,-0.0032,-0.0055
7.513757,-0.0032,-0.0055
7.523762,-0.0032,-0.005499
7.533767,-0.003199,-0.005499
7.543772,-0.003199,-0.005498
7.553777,-0.003198,-0.005497
7.563782,-0.003197,-0.005496
7.573787,-0.003197,-0.005494
7.583792,-0.003196,-0.005492
7.593797,-0.003194,-0.00549
7.603802,-0.003193,-0.005488
7.613807,-0.003192,-0.005486
7.623812,-0.00319,-0.005483
7.633817,-0.003189,-0.005481
7.643822,-0.003187,-0.005478
7.653827,-0.003185,-0.005474
7.663832,-0.003183,-0.005471
7.673837,-0.003181,-0.005467
7.683842,-0.003179,-0.005463
7.693847,-0.003176,-0.005459
7.703852,-0.003174,-0.005455
7.713857,-0.003171,-0.00545
7.723862,-0.003168,-0.005446
7.733867,-0.003166,-0.005441
7.743872,-0.003163,-0.005436
7.753877,-0.003159,-0.00543
7.763882,-0.003156,-0.005425
7.773887,-0.003153,-0.005419
7.783892,-0.003149,-0.005413
7.793897,-0.003146,-0.005406
7.803902,-0.003142,-0.0054
7.813907,-0.003138,-0.005393
7.823912,-0.003134,-0.005386
7.833917,-0.00313,-0.005379
7.843922,-0.003126,-0.005372
7.853927,-0.003121,-0.005365
7.863932,-0.003117,-0.005357
7.873937,-0.003112,-0.005349
7.883942,-0.003107,-0.005341
7.893947,-0.003102,-0.005332
7.903952,-0.003097,-0.005324
7.913957,-0.003092,-0.005315
7.923962,-0.003087,-0.005306
7.933967,-0.003082,-0.005297
7.943972,-0.003076,-0.005287
7.953977,-0.003071,-0.005278
7.963982,-0.003065,-0.005268
7.973987,-0.003059,-0.005258
7.983992,-0.003053,-0.005248
7.993997,-0.003047,-0.005237
8.004002,-0.003041,-0.005227
8.014007,-0.003035,-0.005216
8.024012,-0.003028,-0.005205
8.034017,-0.003022,-0.005193
8.044022,-0.003015,-0.005182
8.054027,-0.003008,-0.00517
8.064032,-0.003001,-0.005158
8.074037,-0.002994,-0.005146
8.084042,-0.002987,-0.005134
8.094047,-0.00298,-0.005121
8.104052,-0.002972,-0.005109
8.114057,-0.002965,-0.005096
8.124062,-0.002957,-0.005083
8.134067,-0.002949,-0.005069
8.144072,-0.002942,-0.005056
8.154077,-0.002934,-0.005042
8.164082,-0.002925,-0.005028
8.174087,-0.002917,-0.005014
8.184092,-0.002909,-0.005
8.194097,-0.0029,-0.004985
8.204102,-0.002892,-0.00497
8.214107,-0.002883,-0.004956
8.224112,-0.002874,-0.004941
8.234117,-0.002866,-0.004925
8.244122,-0.002857,-0.00491
8.254127,-0.002847,-0.004894
8.264132,-0.002838,-0.004878
8.274137,-0.002829,-0.004862
8.284142,-0.002819,-0.004846
8.294147,-0.00281,-0.004829
8.304152,-0.0028,-0.004813
8.314157,-0.00279,-0.004796
8.324162,-0.00278,-0.004779
8.334167,-0.00277,-0.004762
8.344172,-0.00276,-0.004744
8.354177,-0.00275,-0.004727
8.364182,-0.00274,-0.004709
8.374187,-0.002729,-0.004691
8.384192,-0.002719,-0.004673
8.394197,-0.002708,-0.004655
8.404202,-0.002697,-0.004636
8.414207,-0.002686,-0.004617
8.424212,-0.002675,-0.004598
8.434217,-0.002664,-0.004579
8.444222,-0.002653,-0.00456
8.454227,-0.002642,-0.004541
8.464232,-0.00263,-0.004521
8.474237,-0.002619,-0.004501
8.484242,-0.002607,-0.004481
8.494247,-0.002596,-0.004461
8.504252,-0.002584,-0.004441
8.514257,-0.002572,-0.00442
8.524262,-0.00256,-0.0044
8.534267,-0.002548,-0.004379
8.544272,-0.002536,-0.004358
8.554277,-0.002523,-0.004337
8.564282,-0.002511,-0.004315
8.574287,-0.002498,-0.004294
8.584292,-0.002486,-0.004272
8.594297,-0.002473,-0.00425
8.604302,-0.00246,-0.004228
8.614307,-0.002447,-0.004206
8.624312,-0.002434,-0.004184
8.634317,-0.002421,-0.004161
8.644322,-0.002408,-0.004139
8.654327,-0.002395,-0.004116
8.664332,-0.002381,-0.004093
8.674337,-0.002368,-0.00407
8.684342,-0.002354,-0.004046
8.694347,-0.00234,-0.004023
8.704352,-0.002327,-0.003999
8.714357,-0.002313,-0.003975
8.724362,-0.002299,-0.003951
8.734367,-0.002285,-0.003927
8.744372,-0.002271,-0.003903
8.754377,-0.002257,-0.003878
8.764382,-0.002242,-0.003854
8.774387,-0.002228,-0.003829
8.784392,-0.002213,-0.003804
8.794397,-0.002199,-0.003779
8.804402,-0.002184,-0.003754
8.814407,-0.002169,-0.003729
8.824412,-0.002155,-0.003703
8.834417,-0.00214,-0.003677
8.844422,-0.002125,-0.003652
8.854427,-0.00211,-0.003626
8.864432,-0.002094,-0.0036
8.874437,-0.002079,-0.003573
8.884442,-0.002064,-0.003547
8.894447,-0.002048,-0.003521
8.904452,-0.002033,-0.003494
8.914457,-0.002017,-0.003467
8.924462,-0.002002,-0.00344
8.934467,-0.001986,-0.003413
8.944472,-0.00197,-0.003386
8.954477,-0.001954,-0.003359
8.964482,-0.001938,-0.003331
8.974487,-0.001922,-0.003304
8.984492,-0.001906,-0.003276
8.994497,-0.00189,-0.003248
9.004502,-0.001874,-0.00322
9.014507,-0.001857,-0.003192
9.024512,-0.001841,-0.003164
9.034517,-0.001824,-0.003136
9.044522,-0.001808,-0.003107
9.054527,-0.001791,-0.003079
9.064532,-0.001774,-0.00305
9.074537,-0.001758,-0.003021
9.084542,-0.001741,-0.002992
9.094547,-0.001724,-0.002963
9.104552,-0.001707,-0.002934
9.114557,-0.00169,-0.002904
9.124562,-0.001673,-0.002875
9.134567,-0.001656,-0.002846
9.144572,-0.001638,-0.002816
9.154577,-0.001621,-0.002786
9.164582,-0.001604,-0.002756
9.174587,-0.001586,-0.002726
9.184592,-0.001569,-0.002696
9.194597,-0.001551,-0.002666
9.204602,-0.001533,-0.002636
9.214607,-0.001516,-0.002605
9.224612,-0.001498,-0.002575
9.234617,-0.00148,-0.002544
9.244622,-0.001462,-0.002513
9.254627,-0.001444,-0.002483
9.264632,-0.001426,-0.002452
9.274637,-0.001408,-0.002421
9.284642,-0.00139,-0.00239
9.294647,-0.001372,-0.002359
9.304652,-0.001354,-0.002327
9.314657,-0.001336,-0.002296
9.324662,-0.001317,-0.002264
9.334667,-0.001299,-0.002233
9.344672,-0.001281,-0.002201
9.354677,-0.001262,-0.002169
9.364682,-0.001244,-0.002138
9.374687,-0.001225,-0.002106
9.384692,-0.001207,-0.002074
9.394697,-0.001188,-0.002042
9.404702,-0.001169,-0.00201
9.414707,-0.00115,-0.001977
9.424712,-0.001132,-0.001945
9.434717,-0.001113,-0.001913
9.444722,-0.001094,-0.00188
9.454727,-0.001075,-0.001848
9.464732,-0.001056,-0.001815
9.474737,-0.001037,-0.001782
9.484742,-0.001018,-0.00175
9.494747,-0.000999,-0.001717
9.504752,-0.00098,-0.001684
9.514757,-0.000961,-0.001651
9.524762,-0.000941,-0.001618
9.534767,-0.000922,-0.001585
9.544772,-0.000903,-0.001552
9.554777,-0.000884,-0.001519
9.564782,-0.000864,-0.001485
9.574787,-0.000845,-0.001452
9.584792,-0.000825,-0.001419
9.594797,-0.000806,-0.001385
9.604802,-0.000786,-0.001352
9.614807,-0.000767,-0.001318
9.624812,-0.000747,-0.001285
9.634817,-0.000728,-0.001251
9.644822,-0.000708,-0.001217
9.654827,-0.000689,-0.001184
9.664832,-0.000669,-0.00115
9.674837,-0.000649,-0.001116
9.684842,-0.00063,-0.001082
9.694847,-0.00061,-0.001048
9.704852,-0.00059,-0.001014
9.714857,-0.00057,-0.00098
9.724862,-0.00055,-0.000946
9.734867,-0.000531,-0.000912
9.744872,-0.000511,-0.000878
9.754877,-0.000491,-0.000844
9.764882,-0.000471,-0.00081
9.774887,-0.000451,-0.000775
9.784892,-0.000431,-0.000741
9.794897,-0.000411,-0.000707
9.804902,-0.000391,-0.000673
9.814907,-0.000371,-0.000638
9.824912,-0.000351,-0.000604
9.834917,-0.000331,-0.000569
9.844922,-0.000311,-0.000535
9.854927,-0.000291,-0.000501
9.864932,-0.000271,-0.000466
9.874937,-0.000251,-0.000432
9.884942,-0.000231,-0.000397
9.894947,-0.000211,-0.000363
9.904952,-0.000191,-0.000328
9.914957,-0.000171,-0.000294
9.924962,-0.000151,-0.000259
9.934967,-0.000131,-0.000225
9.944972,-0.000111,-0.00019
9.954977,-9.1e-05,-0.000156
9.964982,-7e-05,-0.000121
9.974987,-5e-05,-8.6e-05
9.984992,-3e-05,-5.2e-05
9.994997,-1e-05,-1.7e-05
10.005003,1e-05,1.7e-05
10.015008,3e-05,5.2e-05
10.025013,5e-05,8.6e-05
10.035018,7e-05,0.000121
10.045023,9.1e-05,0.000156
10.055028,0.000111,0.00019
10.065033,0.000131,0.000225
10.075038,0.000151,0.000259
10.085043,0.000171,0.000294
10.095048,0.000191,0.000328
10.105053,0.000211,0.000363
10.115058,0.000231,0.000397
10.125063,0.000251,0.000432
10.135068,0.000271,0.000466
10.145073,0.000291,0.000501
10.155078,0.000311,0.000535
10.165083,0.000331,0.000569
10.175088,0.000351,0.000604
10.185093,0.000371,0.000638
10.195098,0.000391,0.000673
10.205103,0.000411,0.000707
10.215108,0.000431,0.000741
10.225113,0.000451,0.000775
10.235118,0.000471,0.00081
10.245123,0.000491,0.000844
10.255128,0.000511,0.000878
10.265133,0.000531,0.000912
10.275138,0.00055,0.000946
10.285143,0.00057,0.00098
10.295148,0.00059,0.001014
10.305153,0.00061,0.001048
10.315158,0.00063,0.001082
10.325163,0.000649,0.001116
10.335168,0.000669,0.00115
10.345173,0.000689,0.001184
10.355178,0.000708,0.001217
10.365183,0.000728,0.001251
10.375188,0.000747,0.001285
10.385193,0.000767,0.001318
10.395198,0.000786,0.001352
10.405203,0.000806,0.001385
10.415208,0.000825,0.001419
10.425213,0.000845,0.001452
10.435218,0.000864,0.001485
10.445223,0.000884,0.001519
10.455228,0.000903,0.001552
10.465233,0.000922,0.001585
10.475238,0.000941,0.001618
10.485243,0.000961,0.001651
10.495248,0.00098,0.001684
10.505253,0.000999,0.001717
10.515258,0.001018,0.00175
10.525263,0.001037,0.001782
10.535268,0.001056,0.001815
10.545273,0.001075,0.001848
10.555278,0.001094,0.00188
10.565283,0.001113,0.001913
10.575288,0.001132,0.001945
10.585293,0.00115,0.001977
10.595298,0.001169,0.00201
10.605303,0.001188,0.002042
10.615308,0.001207,0.002074
10.625313,0.001225,0.002106
10.635318,0.001244,0.002138
10.645323,0.001262,0.002169
10.655328,0.001281,0.002201
10.665333,0.001299,0.002233
10.675338,0.001317,0.002264
10.685343,0.001336,0.002296
10.695348,0.001354,0.002327
10.705353,0.001372,0.002359
10.715358,0.00139,0.00239
10.725363,0.001408,0.002421
10.735368,0.001426,0.002452
10.745373,0.001444,0.002483
10.755378,0.001462,0.002513
10.765383,0.00148,0.002544
10.775388,0.001498,0.002575
10.785393,0.001516,0.002605
10.795398,0.001533,0.002636
10.805403,0.001551,0.002666
10.815408,0.001569,0.002696
10.825413,0.001586,0.002726
10.835418,0.001604,0.002756
10.845423,0.001621,0.002786
10.855428,0.001638,0.002816
10.865433,0.001656,0.002846
10.875438,0.001673,0.002875
10.885443,0.00169,0.002904
10.895448,0.001707,0.002934
10.905453,0.001724,0.002963
10.915458,0.001741,0.002992
10.925463,0.001758,0.003021
10.935468,0.001774,0.00305
10.945473,0.001791,0.003079
10.955478,0.001808,0.003107
10.965483,0.001824,0.003136
10.975488,0.001841,0.003164
10.985493,0.001857,0.003192
10.995498,0.001874,0.00322
11.005503,0.00189,0.003248
11.015508,0.001906,0.003276
11.025513,0.001922,0.003304
11.035518,0.001938,0.003331
11.045523,0.001954,0.003359
11.055528,0.00197,0.003386
11.065533,0.001986,0.003413
11.075538,0.002002,0.00344
11.085543,0.002017,0.003467
11.095548,0.002033,0.003494
11.105553,0.002048,0.003521
11.115558,0.002064,0.003547
11.125563,0.002079,0.003573
11.135568,0.002094,0.0036
11.145573,0.00211,0.003626
11.155578,0.002125,0.003652
11.165583,0.00214,0.003677
11.175588,0.002155,0.003703
11.185593,0.002169,0.003729
11.195598,0.002184,0.003754
11.205603,0.002199,0.003779
11.215608,0.002213,0.003804
11.225613,0.002228,0.003829
11.235618,0.002242,0.003854
11.245623,0.002257,0.003878
11.255628,0.002271,0.003903
11.265633,0.002285,0.003927
11.275638,0.002299,0.003951
11.285643,0.002313,0.003975
11.295648,0.002327,0.003999
11.305653,0.00234,0.004023
11.315658,0.002354,0.004046
11.325663,0.002368,0.00407
11.335668,0.002381,0.004093
11.345673,0.002395,0.004116
11.355678,0.002408,0.004139
11.365683,0.002421,0.004161
11.375688,0.002434,0.004184
11.385693,0.002447,0.004206
11.395698,0.00246,0.004228
11.405703,0.002473,0.00425
11.415708,0.002486,0.004272
11.425713,0.002498,0.004294
11.435718,0.002511,0.004315
11.445723,0.002523,0.004337
11.455728,0.002536,0.004358
11.465733,0.002548,0.004379
11.475738,0.00256,0.0044
11.485743,0.002572,0.00442
11.495748,0.002584,0.004441
11.505753,0.002596,0.004461
11.515758,0.002607,0.004481
11.525763,0.002619,0.004501
11.535768,0.00263,0.004521
11.545773,0.002642,0.004541
11.555778,0.002653,0.00456
11.565783,0.002664,0.004579
11.575788,0.002675,0.004598
11.585793,0.002686,0.004617
11.595798,0.002697,0.004636
11.605803,0.002708,0.004655
11.615808,0.002719,0.004673
11.625813,0.002729,0.004691
11.635818,0.00274,0.004709
11.645823,0.00275,0.004727
11.655828,0.00276,0.004744
11.665833,0.00277,0.004762
11.675838,0.00278,0.004779
11.685843,0.00279,0.004796
11.695848,0.0028,0.004813
11.705853,0.00281,0.004829
11.715858,0.002819,0.004846
11.725863,0.002829,0.004862
11.735868,0.002838,0.004878
11.745873,0.002847,0.004894
11.755878,0.002857,0.00491
11.765883,0.002866,0.004925
11.775888,0.002874,0.004941
11.785893,0.002883,0.004956
11.795898,0.002892,0.00497
11.805903,0.0029,0.004985
11.815908,0.002909,0.005
11.825913,0.002917,0.005014
11.835918,0.002925,0.005028
11.845923,0.002934,0.005042
11.855928,0.002942,0.005056
11.865933,0.002949,0.005069
11.875938,0.002957,0.005083
11.885943,0.002965,0.005096
11.895948,0.002972,0.005109
11.905953,0.00298,0.005121
11.915958,0.002987,0.005134
11.925963,0.002994,0.005146
11.935968,0.003001,0.005158
11.945973,0.003008,0.00517
11.955978,0.003015,0.005182
11.965983,0.003022,0.005193
11.975988,0.003028,0.005205
11.985993,0.003035,0.005216
11.995998,0.003041,0.005227
12.006003,0.003047,0.005237
12.016008,0.003053,0.005248
12.026013,0.003059,0.005258
12.036018,0.003065,0.005268
12.046023,0.003071,0.005278
12.056028,0.003076,0.005287
12.066033,0.003082,0.005297
12.076038,0.003087,0.005306
12.086043,0.003092,0.005315
12.096048,0.003097,0.005324
12.106053,0.003102,0.005332
12.116058,0.003107,0.005341
12.126063,0.003112,0.005349
12.136068,0.003117,0.005357
12.146073,0.003121,0.005365
12.156078,0.003126,0.005372
12.166083,0.00313,0.005379
12.176088,0.003134,0.005386
12.186093,0.003138,0.005393
12.196098,0.003142,0.0054
12.206103,0.003146,0.005406
12.216108,0.003149,0.005413
12.226113,0.003153,0.005419
12.236118,0.003156,0.005425
12.246123,0.003159,0.00543
12.256128,0.003163,0.005436
12.266133,0.003166,0.005441
12.276138,0.003168,0.005446
12.286143,0.003171,0.00545
12.296148,0.003174,0.005455
12.306153,0.003176,0.005459
12.316158,0.003179,0.005463
12.326163,0.003181,0.005467
12.336168,0.003183,0.005471
12.346173,0.003185,0.005474
12.356178,0.003187,0.005478
12.366183,0.003189,0.005481
12.376188,0.00319,0.005483
12.386193,0.003192,0.005486
12.396198,0.003193,0.005488
12.406203,0.003194,0.00549
12.416208,0.003196,0.005492
12.426213,0.003197,0.005494
12.436218,0.003197,0.005496
12.446223,0.003198,0.005497
12.456228,0.003199,0.005498
12.466233,0.003199,0.005499
12.476238,0.0032,0.005499
12.486243,0.0032,0.0055
12.496248,0.0032,0.0055
12.506253,0.0032,0.0055
12.516258,0.0032,0.0055
12.526263,0.0032,0.005499
12.536268,0.003199,0.005499
12.546273,0.003199,0.005498
12.556278,0.003198,0.005497
12.566283,0.003197,0.005495
12.576288,0.003196,0.005494
12.586293,0.003195,0.005492
12.596298,0.003194,0.00549
12.606303,0.003193,0.005488
12.616308,0.003191,0.005485
12.626313,0.00319,0.005483
12.636318,0.003188,0.00548
12.646323,0.003186,0.005477
12.656328,0.003185,0.005473
12.666333,0.003183,0.00547
12.676338,0.00318,0.005466
12.686343,0.003178,0.005462
12.696348,0.003176,0.005458
12.706353,0.003173,0.005454
12.716358,0.00317,0.005449
12.726363,0.003168,0.005444
12.736368,0.003165,0.005439
12.746373,0.003162,0.005434
12.756378,0.003159,0.005429
12.766383,0.003155,0.005423
12.776388,0.003152,0.005417
12.786393,0.003148,0.005411
12.796398,0.003145,0.005405
12.806403,0.003141,0.005398
12.816408,0.003137,0.005392
12.826413,0.003133,0.005385
12.836418,0.003129,0.005378
12.846423,0.003124,0.00537
12.856428,0.00312,0.005363
12.866433,0.003116,0.005355
12.876438,0.003111,0.005347
12.886443,0.003106,0.005339
12.896448,0.003101,0.00533
12.906453,0.003096,0.005322
12.916458,0.003091,0.005313
12.926463,0.003086,0.005304
12.936468,0.00308,0.005294
12.946473,0.003075,0.005285
12.956478,0.003069,0.005275
12.966483,0.003064,0.005265
12.976488,0.003058,0.005255
12.986493,0.003052,0.005245
12.996498,0.003046,0.005235
13.006503,0.003039,0.005224
13.016508,0.003033,0.005213
13.026513,0.003026,0.005202
13.036518,0.00302,0.00519
13.046523,0.003013,0.005179
13.056528,0.003006,0.005167
13.066533,0.002999,0.005155
13.076538,0.002992,0.005143
13.086543,0.002985,0.005131
13.096548,0.002978,0.005118
13.106553,0.00297,0.005105
13.116558,0.002963,0.005092
13.126563,0.002955,0.005079
13.136568,0.002947,0.005066
13.146573,0.00294,0.005052
13.156578,0.002932,0.005039
13.166583,0.002923,0.005025
13.176588,0.002915,0.00501
13.186593,0.002907,0.004996
13.196598,0.002898,0.004982
13.206603,0.00289,0.004967
13.216608,0.002881,0.004952
13.226613,0.002872,0.004937
13.236618,0.002863,0.004921
13.246623,0.002854,0.004906
13.256628,0.002845,0.00489
13.266633,0.002836,0.004874
13.276638,0.002827,0.004858
13.286643,0.002817,0.004842
13.296648,0.002807,0.004825
13.306653,0.002798,0.004809
13.316658,0.002788,0.004792
13.326663,0.002778,0.004775
13.336668,0.002768,0.004757
13.346673,0.002758,0.00474
13.356678,0.002748,0.004722
13.366683,0.002737,0.004704
13.376688,0.002727,0.004686
13.386693,0.002716,0.004668
13.396698,0.002705,0.00465
13.406703,0.002695,0.004631
13.416708,0.002684,0.004613
13.426713,0.002673,0.004594
13.436718,0.002662,0.004575
13.446723,0.00265,0.004555
13.456728,0.002639,0.004536
13.466733,0.002628,0.004516
13.476738,0.002616,0.004496
13.486743,0.002604,0.004476
13.496748,0.002593,0.004456
13.506753,0.002581,0.004436
13.516758,0.002569,0.004415
13.526763,0.002557,0.004395
13.536768,0.002545,0.004374
13.546773,0.002532,0.004353
13.556778,0.00252,0.004331
13.566783,0.002508,0.00431
13.576788,0.002495,0.004289
13.586793,0.002482,0.004267
13.596798,0.00247,0.004245
13.606803,0.002457,0.004223
13.616808,0.002444,0.004201
13.626813,0.002431,0.004178
13.636818,0.002418,0.004156
13.646823,0.002405,0.004133
13.656828,0.002391,0.00411
13.666833,0.002378,0.004087
13.676838,0.002364,0.004064
13.686843,0.002351,0.00404
13.696848,0.002337,0.004017
13.706853,0.002323,0.003993
13.716858,0.002309,0.003969
13.726863,0.002295,0.003945
13.736868,0.002281,0.003921
13.746873,0.002267,0.003897
13.756878,0.002253,0.003872
13.766883,0.002239,0.003848
13.776888,0.002224,0.003823
13.786893,0.00221,0.003798
13.796898,0.002195,0.003773
13.806903,0.00218,0.003748
13.816908,0.002166,0.003722
13.826913,0.002151,0.003697
13.836918,0.002136,0.003671
13.846923,0.002121,0.003645
13.856928,0.002106,0.003619
13.866933,0.002091,0.003593
13.876938,0.002075,0.003567
13.886943,0.00206,0.00354
13.896948,0.002044,0.003514
13.906953,0.002029,0.003487
13.916958,0.002013,0.00346
13.926963,0.001998,0.003434
13.936968,0.001982,0.003406
13.946973,0.001966,0.003379
13.956978,0.00195,0.003352
13.966983,0.001934,0.003324
13.976988,0.001918,0.003297
13.986993,0.001902,0.003269
13.996998,0.001886,0.003241
14.007004,0.00187,0.003213
14.017009,0.001853,0.003185
14.027014,0.001837,0.003157
14.037019,0.00182,0.003128
14.047024,0.001804,0.0031
14.057029,0.001787,0.003071
14.067034,0.00177,0.003043
14.077039,0.001753,0.003014
14.087044,0.001737,0.002985
14.097049,0.00172,0.002956
14.107054,0.001703,0.002926
14.117059,0.001686,0.002897
14.127064,0.001668,0.002868
14.137069,0.001651,0.002838
14.147074,0.001634,0.002808
14.157079,0.001617,0.002779
14.167084,0.001599,0.002749
14.177089,0.001582,0.002719
14.187094,0.001564,0.002689
14.197099,0.001547,0.002658
14.207104,0.001529,0.002628
14.217109,0.001511,0.002598
14.227114,0.001494,0.002567
14.237119,0.001476,0.002537
14.247124,0.001458,0.002506
14.257129,0.00144,0.002475
14.267134,0.001422,0.002444
14.277139,0.001404,0.002413
14.287144,0.001386,0.002382
14.297149,0.001368,0.002351
14.307154,0.001349,0.002319
14.317159,0.001331,0.002288
14.327164,0.001313,0.002257
14.337169,0.001295,0.002225
14.347174,0.001276,0.002193
14.357179,0.001258,0.002162
14.367184,0.001239,0.00213
14.377189,0.001221,0.002098
14.387194,0.001202,0.002066
14.397199,0.001183,0.002034
14.407204,0.001165,0.002002
14.417209,0.001146,0.001969
14.427214,0.001127,0.001937
14.437219,0.001108,0.001905
14.447224,0.001089,0.001872
14.457229,0.00107,0.00184
14.467234,0.001051,0.001807
14.477239,0.001032,0.001774
14.487244,0.001013,0.001741
14.497249,0.000994,0.001709
14.507254,0.000975,0.001676
14.517259,0.000956,0.001643
14.527264,0.000937,0.00161
14.537269,0.000917,0.001577
14.547274,0.000898,0.001543
14.557279,0.000879,0.00151
14.567284,0.000859,0.001477
14.577289,0.00084,0.001444
14.587294,0.000821,0.00141
14.597299,0.000801,0.001377
14.607304,0.000782,0.001343
14.617309,0.000762,0.00131
14.627314,0.000743,0.001276
14.637319,0.000723,0.001243
14.647324,0.000703,0.001209
14.657329,0.000684,0.001175
14.667334,0.000664,0.001141
14.677339,0.000644,0.001107
14.687344,0.000625,0.001074
14.697349,0.000605,0.00104
14.707354,0.000585,0.001006
14.717359,0.000565,0.000972
14.727364,0.000545,0.000938
14.737369,0.000526,0.000903
14.747374,0.000506,0.000869
14.757379,0.000486,0.000835
14.767384,0.000466,0.000801
14.777389,0.000446,0.000767
14.787394,0.000426,0.000733
14.797399,0.000406,0.000698
14.807404,0.000386,0.000664
14.817409,0.000366,0.00063
14.827414,0.000346,0.000595
14.837419,0.000326,0.000561
14.847424,0.000306,0.000526
14.857429,0.000286,0.000492
14.867434,0.000266,0.000458
14.877439,0.000246,0.000423
14.887444,0.000226,0.000389
14.897449,0.000206,0.000354
14.907454,0.000186,0.00032
14.917459,0.000166,0.000285
14.927464,0.000146,0.000251
14.937469,0.000126,0.000216
14.947474,0.000106,0.000181
14.957479,8.5e-05,0.000147
14.967484,6.5e-05,0.000112
14.977489,4.5e-05,7.8e-05
14.987494,2.5e-05,4.3e-05
14.997499,5e-06,9e-06
15.007504,-1.5e-05,-2.6e-05
15.017509,-3.5e-05,-6.1e-05
15.027514,-5.5e-05,-9.5e-05
15.037519,-7.5e-05,-0.00013
15.047524,-9.6e-05,-0.000164
15.057529,-0.000116,-0.000199
15.067534,-0.000136,-0.000233
15.077539,-0.000156,-0.000268
15.087544,-0.000176,-0.000302
15.097549,-0.000196,-0.000337
15.107554,-0.000216,-0.000371
15.117559,-0.000236,-0.000406
15.127564,-0.000256,-0.00044
15.137569,-0.000276,-0.000475
15.147574,-0.000296,-0.000509
15.157579,-0.000316,-0.000544
15.167584,-0.000336,-0.000578
15.177589,-0.000356,-0.000612
15.187594,-0.000376,-0.000647
15.197599,-0.000396,-0.000681
15.207604,-0.000416,-0.000715
15.217609,-0.000436,-0.00075
15.227614,-0.000456,-0.000784
15.237619,-0.000476,-0.000818
15.247624,-0.000496,-0.000852
15.257629,-0.000516,-0.000886
15.267634,-0.000536,-0.000921
15.277639,-0.000555,-0.000955
15.287644,-0.000575,-0.000989
15.297649,-0.000595,-0.001023
15.307654,-0.000615,-0.001057
15.317659,-0.000634,-0.00109
15.327664,-0.000654,-0.001124
15.337669,-0.000674,-0.001158
15.347674,-0.000693,-0.001192
15.357679,-0.000713,-0.001226
15.367684,-0.000733,-0.001259
15.377689,-0.000752,-0.001293
15.387694,-0.000772,-0.001327
15.397699,-0.000791,-0.00136
15.407704,-0.000811,-0.001394
15.417709,-0.00083,-0.001427
15.427714,-0.00085,-0.00146
15.437719,-0.000869,-0.001494
15.447724,-0.000888,-0.001527
15.457729,-0.000908,-0.00156
15.467734,-0.000927,-0.001593
15.477739,-0.000946,-0.001626
15.487744,-0.000965,-0.001659
15.497749,-0.000985,-0.001692
15.507754,-0.001004,-0.001725
15.517759,-0.001023,-0.001758
15.527764,-0.001042,-0.001791
15.537769,-0.001061,-0.001823
15.547774,-0.00108,-0.001856
15.557779,-0.001099,-0.001888
15.567784,-0.001118,-0.001921
15.577789,-0.001136,-0.001953
15.587794,-0.001155,-0.001985
15.597799,-0.001174,-0.002018
15.607804,-0.001193,-0.00205
15.617809,-0.001211,-0.002082
15.627814,-0.00123,-0.002114
15.637819,-0.001248,-0.002146
15.647824,-0.001267,-0.002177
15.657829,-0.001285,-0.002209
15.667834,-0.001304,-0.002241
15.677839,-0.001322,-0.002272
15.687844,-0.00134,-0.002304
15.697849,-0.001359,-0.002335
15.707854,-0.001377,-0.002366
15.717859,-0.001395,-0.002397
15.727864,-0.001413,-0.002429
15.737869,-0.001431,-0.00246
15.747874,-0.001449,-0.00249
15.757879,-0.001467,-0.002521
15.767884,-0.001485,-0.002552
15.777889,-0.001503,-0.002582
15.787894,-0.00152,-0.002613
15.797899,-0.001538,-0.002643
15.807904,-0.001556,-0.002674
15.817909,-0.001573,-0.002704
15.827914,-0.001591,-0.002734
15.837919,-0.001608,-0.002764
15.847924,-0.001625,-0.002794
15.857929,-0.001643,-0.002823
15.867934,-0.00166,-0.002853
15.877939,-0.001677,-0.002882
15.887944,-0.001694,-0.002912
15.897949,-0.001711,-0.002941
15.907954,-0.001728,-0.00297
15.917959,-0.001745,-0.002999
15.927964,-0.001762,-0.003028
15.937969,-0.001779,-0.003057
15.947974,-0.001795,-0.003086
15.957979,-0.001812,-0.003114
15.967984,-0.001828,-0.003143
15.977989,-0.001845,-0.003171
15.987994,-0.001861,-0.003199
15.997999,-0.001878,-0.003227
16.008004,-0.001894,-0.003255
16.018009,-0.00191,-0.003283
16.028014,-0.001926,-0.003311
16.038019,-0.001942,-0.003338
16.048024,-0.001958,-0.003366
16.058029,-0.001974,-0.003393
16.068034,-0.00199,-0.00342
16.078039,-0.002006,-0.003447
16.088044,-0.002021,-0.003474
16.098049,-0.002037,-0.003501
16.108054,-0.002052,-0.003527
16.118059,-0.002068,-0.003554
16.128064,-0.002083,-0.00358
16.138069,-0.002098,-0.003606
16.148074,-0.002113,-0.003632
16.158079,-0.002128,-0.003658
16.168084,-0.002143,-0.003684
16.178089,-0.002158,-0.003709
16.188094,-0.002173,-0.003735
16.198099,-0.002188,-0.00376
16.208104,-0.002202,-0.003785
16.218109,-0.002217,-0.00381
16.228114,-0.002231,-0.003835
16.238119,-0.002246,-0.00386
16.248124,-0.00226,-0.003885
16.258129,-0.002274,-0.003909
16.268134,-0.002288,-0.003933
16.278139,-0.002302,-0.003957
16.288144,-0.002316,-0.003981
16.298149,-0.00233,-0.004005
16.308154,-0.002344,-0.004029
16.318159,-0.002358,-0.004052
16.328164,-0.002371,-0.004075
16.338169,-0.002385,-0.004098
16.348174,-0.002398,-0.004121
16.358179,-0.002411,-0.004144
16.368184,-0.002424,-0.004167
16.378189,-0.002437,-0.004189
16.388194,-0.00245,-0.004212
16.398199,-0.002463,-0.004234
16.408204,-0.002476,-0.004256
16.418209,-0.002489,-0.004278
16.428214,-0.002501,-0.004299
16.438219,-0.002514,-0.004321
16.448224,-0.002526,-0.004342
16.458229,-0.002539,-0.004363
16.468234,-0.002551,-0.004384
16.478239,-0.002563,-0.004405
16.488244,-0.002575,-0.004426
16.498249,-0.002587,-0.004446
16.508254,-0.002599,-0.004466
16.518259,-0.00261,-0.004486
16.528264,-0.002622,-0.004506
16.538269,-0.002633,-0.004526
16.548274,-0.002645,-0.004546
16.558279,-0.002656,-0.004565
16.568284,-0.002667,-0.004584
16.578289,-0.002678,-0.004603
16.588294,-0.002689,-0.004622
16.598299,-0.0027,-0.004641
16.608304,-0.002711,-0.004659
16.618309,-0.002721,-0.004677
16.628314,-0.002732,-0.004695
16.638319,-0.002742,-0.004713
16.648324,-0.002753,-0.004731
16.658329,-0.002763,-0.004749
16.668334,-0.002773,-0.004766
16.678339,-0.002783,-0.004783
16.688344,-0.002793,-0.0048
16.698349,-0.002803,-0.004817
16.708354,-0.002812,-0.004834
16.718359,-0.002822,-0.00485
16.728364,-0.002831,-0.004866
16.738369,-0.002841,-0.004882
16.748374,-0.00285,-0.004898
16.758379,-0.002859,-0.004914
16.768384,-0.002868,-0.004929
16.778389,-0.002877,-0.004944
16.788394,-0.002885,-0.004959
16.798399,-0.002894,-0.004974
16.808404,-0.002903,-0.004989
16.818409,-0.002911,-0.005003
16.828414,-0.002919,-0.005018
16.838419,-0.002927,-0.005032
16.848424,-0.002936,-0.005045
16.858429,-0.002944,-0.005059
16.868434,-0.002951,-0.005073
16.878439,-0.002959,-0.005086
16.888444,-0.002967,-0.005099
16.898449,-0.002974,-0.005112
16.908454,-0.002982,-0.005124
16.918459,-0.002989,-0.005137
16.928464,-0.002996,-0.005149
16.938469,-0.003003,-0.005161
16.948474,-0.00301,-0.005173
16.958479,-0.003017,-0.005185
16.968484,-0.003023,-0.005196
16.978489,-0.00303,-0.005207
16.988494,-0.003036,-0.005218
16.998499,-0.003042,-0.005229
17.008504,-0.003049,-0.00524
17.018509,-0.003055,-0.00525
17.028514,-0.003061,-0.00526
17.038519,-0.003066,-0.00527
17.048524,-0.003072,-0.00528
17.058529,-0.003078,-0.00529
17.068534,-0.003083,-0.005299
17.078539,-0.003088,-0.005308
17.088544,-0.003094,-0.005317
17.098549,-0.003099,-0.005326
17.108554,-0.003104,-0.005334
17.118559,-0.003109,-0.005343
17.128564,-0.003113,-0.005351
17.138569,-0.003118,-0.005359
17.148574,-0.003122,-0.005366
17.158579,-0.003127,-0.005374
17.168584,-0.003131,-0.005381
17.178589,-0.003135,-0.005388
17.188594,-0.003139,-0.005395
17.198599,-0.003143,-0.005402
17.208604,-0.003147,-0.005408
17.218609,-0.00315,-0.005414
17.228614,-0.003154,-0.00542
17.238619,-0.003157,-0.005426
17.248624,-0.00316,-0.005432
17.258629,-0.003163,-0.005437
17.268634,-0.003166,-0.005442
17.278639,-0.003169,-0.005447
17.288644,-0.003172,-0.005452
17.298649,-0.003174,-0.005456
17.308654,-0.003177,-0.00546
17.318659,-0.003179,-0.005464
17.328664,-0.003181,-0.005468
17.338669,-0.003184,-0.005472
17.348674,-0.003186,-0.005475
17.358679,-0.003187,-0.005478
17.368684,-0.003189,-0.005481
17.378689,-0.003191,-0.005484
17.388694,-0.003192,-0.005487
17.398699,-0.003194,-0.005489
17.408704,-0.003195,-0.005491
17.418709,-0.003196,-0.005493
17.428714,-0.003197,-0.005494
17.438719,-0.003198,-0.005496
17.448724,-0.003198,-0.005497
17.458729,-0.003199,-0.005498
17.468734,-0.003199,-0.005499
17.478739,-0.0032,-0.0055
17.488744,-0.0032,-0.0055
17.498749,-0.0032,-0.0055
17.508754,-0.0032,-0.0055
17.518759,-0.0032,-0.0055
17.528764,-0.003199,-0.005499
17.538769,-0.003199,-0.005498
17.548774,-0.003198,-0.005497
17.558779,-0.003198,-0.005496
17.568784,-0.003197,-0.005495
17.578789,-0.003196,-0.005493
17.588794,-0.003195,-0.005491
17.598799,-0.003194,-0.005489
17.608804,-0.003193,-0.005487
17.618809,-0.003191,-0.005485
17.628814,-0.00319,-0.005482
17.638819,-0.003188,-0.005479
17.648824,-0.003186,-0.005476
17.658829,-0.003184,-0.005473
17.668834,-0.003182,-0.005469
17.678839,-0.00318,-0.005465
17.688844,-0.003178,-0.005461
17.698849,-0.003175,-0.005457
17.708854,-0.003172,-0.005453
17.718859,-0.00317,-0.005448
17.728864,-0.003167,-0.005443
17.738869,-0.003164,-0.005438
17.748874,-0.003161,-0.005433
17.758879,-0.003158,-0.005427
17.768884,-0.003154,-0.005422
17.778889,-0.003151,-0.005416
17.788894,-0.003147,-0.00541
17.798899,-0.003144,-0.005403
17.808904,-0.00314,-0.005397
17.818909,-0.003136,-0.00539
17.828914,-0.003132,-0.005383
17.838919,-0.003128,-0.005376
17.848924,-0.003123,-0.005368
17.858929,-0.003119,-0.005361
17.868934,-0.003114,-0.005353
17.878939,-0.00311,-0.005345
17.888944,-0.003105,-0.005337
17.898949,-0.0031,-0.005328
17.908954,-0.003095,-0.005319
17.918959,-0.00309,-0.005311
17.928964,-0.003084,-0.005301
17.938969,-0.003079,-0.005292
17.948974,-0.003074,-0.005283
17.958979,-0.003068,-0.005273
17.968984,-0.003062,-0.005263
17.978989,-0.003056,-0.005253
17.988994,-0.00305,-0.005242
17.998999,-0.003044,-0.005232
18.009005,-0.003038,-0.005221
18.01901,-0.003031,-0.00521
18.029015,-0.003025,-0.005199
18.03902,-0.003018,-0.005188
18.049025,-0.003011,-0.005176
18.05903,-0.003005,-0.005164
18.069035,-0.002998,-0.005152
18.07904,-0.002991,-0.00514
18.089045,-0.002983,-0.005128
18.09905,-0.002976,-0.005115
18.109055,-0.002969,-0.005102
18.11906,-0.002961,-0.005089
18.129065,-0.002953,-0.005076
18.13907,-0.002945,-0.005063
18.149075,-0.002938,-0.005049
18.15908,-0.00293,-0.005035
18.169085,-0.002921,-0.005021
18.17909,-0.002913,-0.005007
18.189095,-0.002905,-0.004992
18.1991,-0.002896,-0.004978
18.209105,-0.002888,-0.004963
18.21911,-0.002879,-0.004948
18.229115,-0.00287,-0.004933
18.23912,-0.002861,-0.004917
18.249125,-0.002852,-0.004902
18.25913,-0.002843,-0.004886
18.269135,-0.002834,-0.00487
18.27914,-0.002824,-0.004854
18.289145,-0.002815,-0.004838
18.29915,-0.002805,-0.004821
18.309155,-0.002795,-0.004804
18.31916,-0.002785,-0.004787
18.329165,-0.002775,-0.00477
18.33917,-0.002765,-0.004753
18.349175,-0.002755,-0.004736
18.35918,-0.002745,-0.004718
18.369185,-0.002735,-0.0047
18.37919,-0.002724,-0.004682
18.389195,-0.002713,-0.004664
18.3992,-0.002703,-0.004645
18.409205,-0.002692,-0.004627
18.41921,-0.002681,-0.004608
18.429215,-0.00267,-0.004589
18.43922,-0.002659,-0.00457
18.449225,-0.002648,-0.00455
18.45923,-0.002636,-0.004531
18.469235,-0.002625,-0.004511
18.47924,-0.002613,-0.004491
18.489245,-0.002602,-0.004471
18.49925,-0.00259,-0.004451
18.509255,-0.002578,-0.004431
18.51926,-0.002566,-0.00441
18.529265,-0.002554,-0.004389
18.53927,-0.002542,-0.004368
18.549275,-0.002529,-0.004347
18.55928,-0.002517,-0.004326
18.569285,-0.002505,-0.004305
18.57929,-0.002492,-0.004283
18.589295,-0.002479,-0.004261
18.5993,-0.002467,-0.004239
18.609305,-0.002454,-0.004217
18.61931,-0.002441,-0.004195
18.629315,-0.002428,-0.004173
18.63932,-0.002415,-0.00415
18.649325,-0.002401,-0.004127
18.65933,-0.002388,-0.004104
18.669335,-0.002374,-0.004081
18.67934,-0.002361,-0.004058
18.689345,-0.002347,-0.004034
18.69935,-0.002334,-0.004011
18.709355,-0.00232,-0.003987
18.71936,-0.002306,-0.003963
18.729365,-0.002292,-0.003939
18.73937,-0.002278,-0.003915
18.749375,-0.002264,-0.003891
18.75938,-0.002249,-0.003866
18.769385,-0.002235,-0.003841
18.77939,-0.002221,-0.003817
18.789395,-0.002206,-0.003792
18.7994,-0.002191,-0.003767
18.809405,-0.002177,-0.003741
18.81941,-0.002162,-0.003716
18.829415,-0.002147,-0.00369
18.83942,-0.002132,-0.003665
18.849425,-0.002117,-0.003639
18.85943,-0.002102,-0.003613
18.869435,-0.002087,-0.003587
18.87944,-0.002071,-0.00356
18.889445,-0.002056,-0.003534
18.89945,-0.002041,-0.003507
18.909455,-0.002025,-0.003481
18.91946,-0.002009,-0.003454
18.929465,-0.001994,-0.003427
18.93947,-0.001978,-0.0034
18.949475,-0.001962,-0.003372
18.95948,-0.001946,-0.003345
18.969485,-0.00193,-0.003318
18.97949,-0.001914,-0.00329
18.989495,-0.001898,-0.003262
18.9995,-0.001882,-0.003234
19.009505,-0.001865,-0.003206
19.01951,-0.001849,-0.003178
19.029515,-0.001833,-0.00315
19.03952,-0.001816,-0.003121
19.049525,-0.001799,-0.003093
19.05953,-0.001783,-0.003064
19.069535,-0.001766,-0.003035
19.07954,-0.001749,-0.003007
19.089545,-0.001732,-0.002977
19.09955,-0.001715,-0.002948
19.109555,-0.001698,-0.002919
19.11956,-0.001681,-0.00289
19.129565,-0.001664,-0.00286
19.13957,-0.001647,-0.002831
19.149575,-0.00163,-0.002801
19.15958,-0.001612,-0.002771
19.169585,-0.001595,-0.002741
19.17959,-0.001577,-0.002711
19.189595,-0.00156,-0.002681
19.1996,-0.001542,-0.002651
19.209605,-0.001525,-0.002621
19.21961,-0.001507,-0.00259
19.229615,-0.001489,-0.00256
19.23962,-0.001471,-0.002529
19.249625,-0.001453,-0.002498
19.25963,-0.001435,-0.002467
19.269635,-0.001417,-0.002436
19.27964,-0.001399,-0.002405
19.289645,-0.001381,-0.002374
19.29965,-0.001363,-0.002343
19.309655,-0.001345,-0.002312
19.31966,-0.001327,-0.00228
19.329665,-0.001308,-0.002249
19.33967,-0.00129,-0.002217
19.349675,-0.001271,-0.002185
19.35968,-0.001253,-0.002154
19.369685,-0.001234,-0.002122
19.37969,-0.001216,-0.00209
19.389695,-0.001197,-0.002058
19.3997,-0.001179,-0.002026
19.409705,-0.00116,-0.001993
19.41971,-0.001141,-0.001961
19.429715,-0.001122,-0.001929
19.43972,-0.001103,-0.001896
19.449725,-0.001084,-0.001864
19.45973,-0.001066,-0.001831
19.469735,-0.001047,-0.001799
19.47974,-0.001028,-0.001766
19.489745,-0.001008,-0.001733
19.49975,-0.000989,-0.0017
19.509755,-0.00097,-0.001668
19.51976,-0.000951,-0.001635
19.529765,-0.000932,-0.001601
19.53977,-0.000913,-0.001568
19.549775,-0.000893,-0.001535
19.55978,-0.000874,-0.001502
19.569785,-0.000855,-0.001469
19.57979,-0.000835,-0.001435
19.589795,-0.000816,-0.001402
19.5998,-0.000796,-0.001368
19.609805,-0.000777,-0.001335
19.61981,-0.000757,-0.001301
19.629815,-0.000738,-0.001268
19.63982,-0.000718,-0.001234
19.649825,-0.000698,-0.0012
19.65983,-0.000679,-0.001167
19.669835,-0.000659,-0.001133
19.67984,-0.000639,-0.001099
19.689845,-0.00062,-0.001065
19.69985,-0.0006,-0.001031
19.709855,-0.00058,-0.000997
19.71986,-0.00056,-0.000963
19.729865,-0.000541,-0.000929
19.73987,-0.000521,-0.000895
19.749875,-0.000501,-0.000861
19.75988,-0.000481,-0.000827
19.769885,-0.000461,-0.000792
19.77989,-0.000441,-0.000758
19.789895,-0.000421,-0.000724
19.7999,-0.000401,-0.00069
19.809905,-0.000381,-0.000655
19.81991,-0.000361,-0.000621
19.829915,-0.000341,-0.000587
19.83992,-0.000321,-0.000552
19.849925,-0.000301,-0.000518
19.85993,-0.000281,-0.000483
19.869935,-0.000261,-0.000449
19.87994,-0.000241,-0.000415
19.889945,-0.000221,-0.00038
19.89995,-0.000201,-0.000346
19.909955,-0.000181,-0.000311
19.91996,-0.000161,-0.000276
19.929965,-0.000141,-0.000242
19.93997,-0.000121,-0.000207
19.949975,-0.000101,-0.000173
19.95998,-8e-05,-0.000138
19.969985,-6e-05,-0.000104
19.97999,-4e-05,-6.9e-05
19.989995,-2e-05,-3.5e-05
20.0,-0.0,-0.0
