Time (s),Normal Strain,Shear Strain
0.0,0.0,0.0
0.010005,6.7e-05,0.000116
0.02001,0.000133,0.000231
0.030015,0.0002,0.000347
0.04002,0.000267,0.000463
0.050025,0.000333,0.000578
0.06003,0.0004,0.000694
0.070035,0.000466,0.000809
0.08004,0.000533,0.000925
0.090045,0.000599,0.00104
0.10005,0.000666,0.001156
0.110055,0.000732,0.001271
0.12006,0.000799,0.001387
0.130065,0.000865,0.001502
0.14007,0.000932,0.001617
0.150075,0.000998,0.001732
0.16008,0.001064,0.001848
0.170085,0.001131,0.001963
0.18009,0.001197,0.002078
0.190095,0.001263,0.002192
0.2001,0.001329,0.002307
0.210105,0.001395,0.002422
0.22011,0.001461,0.002537
0.230115,0.001527,0.002651
0.24012,0.001593,0.002766
0.250125,0.001659,0.00288
0.26013,0.001725,0.002994
0.270135,0.001791,0.003108
0.28014,0.001856,0.003222
0.290145,0.001922,0.003336
0.30015,0.001987,0.00345
0.310155,0.002053,0.003563
0.32016,0.002118,0.003676
0.330165,0.002183,0.00379
0.34017,0.002248,0.003903
0.350175,0.002313,0.004016
0.36018,0.002378,0.004129
0.370185,0.002443,0.004241
0.38019,0.002508,0.004354
0.390195,0.002573,0.004466
0.4002,0.002637,0.004578
0.410205,0.002702,0.00469
0.42021,0.002766,0.004802
0.430215,0.002831,0.004913
0.44022,0.002895,0.005025
0.450225,0.002959,0.005136
0.46023,0.003023,0.005247
0.470235,0.003086,0.005358
0.48024,0.00315,0.005468
0.490245,0.003214,0.005579
0.50025,0.003277,0.005689
0.510255,0.00334,0.005799
0.52026,0.003404,0.005908
0.530265,0.003467,0.006018
0.54027,0.00353,0.006127
0.550275,0.003592,0.006236
0.56028,0.003655,0.006344
0.570285,0.003717,0.006453
0.58029,0.00378,0.006561
0.590295,0.003842,0.006669
0.6003,0.003904,0.006777
0.610305,0.003966,0.006884
0.62031,0.004028,0.006991
0.630315,0.004089,0.007098
0.64032,0.004151,0.007205
0.650325,0.004212,0.007311
0.66033,0.004273,0.007417
0.670335,0.004334,0.007523
0.68034,0.004394,0.007628
0.690345,0.004455,0.007733
0.70035,0.004515,0.007838
0.710355,0.004576,0.007942
0.72036,0.004636,0.008047
0.730365,0.004695,0.008151
0.74037,0.004755,0.008254
0.750375,0.004815,0.008357
0.76038,0.004874,0.00846
0.770385,0.004933,0.008563
0.78039,0.004992,0.008665
0.790395,0.00505,0.008767
0.8004,0.005109,0.008868
0.810405,0.005167,0.008969
0.82041,0.005225,0.00907
0.830415,0.005283,0.009171
0.84042,0.005341,0.009271
0.850425,0.005398,0.009371
0.86043,0.005456,0.00947
0.870435,0.005513,0.009569
0.88044,0.005569,0.009668
0.890445,0.005626,0.009766
0.90045,0.005682,0.009864
0.910455,0.005738,0.009961
0.92046,0.005794,0.010058
0.930465,0.00585,0.010155
0.94047,0.005905,0.010251
0.950475,0.005961,0.010347
0.96048,0.006016,0.010442
0.970485,0.00607,0.010537
0.98049,0.006125,0.010632
0.990495,0.006179,0.010726
1.0005,0.006233,0.01082
1.010505,0.006287,0.010913
1.02051,0.006341,0.011006
1.030515,0.006394,0.011099
1.04052,0.006447,0.011191
1.050525,0.0065,0.011282
1.06053,0.006552,0.011373
1.070535,0.006604,0.011464
1.08054,0.006656,0.011554
1.090545,0.006708,0.011644
1.10055,0.00676,0.011734
1.110555,0.006811,0.011822
1.12056,0.006862,0.011911
1.130565,0.006912,0.011999
1.14057,0.006963,0.012086
1.150575,0.007013,0.012173
1.16058,0.007063,0.01226
1.170585,0.007112,0.012346
1.18059,0.007161,0.012431
1.190595,0.00721,0.012516
1.2006,0.007259,0.012601
1.210605,0.007308,0.012685
1.22061,0.007356,0.012768
1.230615,0.007403,0.012851
1.24062,0.007451,0.012934
1.250625,0.007498,0.013016
1.26063,0.007545,0.013097
1.270635,0.007592,0.013178
1.28064,0.007638,0.013259
1.290645,0.007684,0.013339
1.30065,0.00773,0.013418
1.310655,0.007775,0.013497
1.32066,0.007821,0.013575
1.330665,0.007865,0.013653
1.34067,0.00791,0.01373
1.350675,0.007954,0.013807
1.36068,0.007998,0.013883
1.370685,0.008042,0.013959
1.38069,0.008085,0.014034
1.390695,0.008128,0.014109
1.4007,0.00817,0.014183
1.410705,0.008213,0.014256
1.42071,0.008255,0.014329
1.430715,0.008296,0.014401
1.44072,0.008338,0.014473
1.450725,0.008379,0.014544
1.46073,0.008419,0.014615
1.470735,0.00846,0.014685
1.48074,0.0085,0.014754
1.490745,0.008539,0.014823
1.50075,0.008579,0.014891
1.510755,0.008617,0.014959
1.52076,0.008656,0.015026
1.530765,0.008694,0.015092
1.54077,0.008732,0.015158
1.550775,0.00877,0.015223
1.56078,0.008807,0.015288
1.570785,0.008844,0.015352
1.58079,0.008881,0.015416
1.590795,0.008917,0.015478
1.6008,0.008953,0.015541
1.610805,0.008988,0.015602
1.62081,0.009023,0.015663
1.630815,0.009058,0.015724
1.64082,0.009093,0.015783
1.650825,0.009127,0.015843
1.66083,0.00916,0.015901
1.670835,0.009194,0.015959
1.68084,0.009227,0.016016
1.690845,0.009259,0.016073
1.70085,0.009292,0.016129
1.710855,0.009323,0.016184
1.72086,0.009355,0.016239
1.730865,0.009386,0.016293
1.74087,0.009417,0.016346
1.750875,0.009447,0.016399
1.76088,0.009477,0.016451
1.770885,0.009507,0.016503
1.78089,0.009536,0.016554
1.790895,0.009565,0.016604
1.8009,0.009594,0.016653
1.810905,0.009622,0.016702
1.82091,0.00965,0.01675
1.830915,0.009677,0.016798
1.84092,0.009704,0.016845
1.850925,0.009731,0.016891
1.86093,0.009757,0.016936
1.870935,0.009783,0.016981
1.88094,0.009808,0.017026
1.890945,0.009833,0.017069
1.90095,0.009858,0.017112
1.910955,0.009882,0.017154
1.92096,0.009906,0.017196
1.930965,0.00993,0.017236
1.94097,0.009953,0.017277
1.950975,0.009976,0.017316
1.96098,0.009998,0.017355
1.970985,0.01002,0.017393
1.98099,0.010041,0.01743
1.990995,0.010063,0.017467
2.001001,0.010083,0.017503
2.011006,0.010104,0.017538
2.021011,0.010124,0.017573
2.031016,0.010143,0.017607
2.041021,0.010162,0.01764
2.051026,0.010181,0.017673
2.061031,0.010199,0.017705
2.071036,0.010217,0.017736
2.081041,0.010235,0.017766
2.091046,0.010252,0.017796
2.101051,0.010269,0.017825
2.111056,0.010285,0.017853
2.121061,0.010301,0.017881
2.131066,0.010316,0.017908
2.141071,0.010332,0.017934
2.151076,0.010346,0.01796
2.161081,0.010361,0.017984
2.171086,0.010374,0.018008
2.181091,0.010388,0.018032
2.191096,0.010401,0.018055
2.201101,0.010414,0.018076
2.211106,0.010426,0.018098
2.221111,0.010438,0.018118
2.231116,0.010449,0.018138
2.241121,0.01046,0.018157
2.251126,0.010471,0.018175
2.261131,0.010481,0.018193
2.271136,0.010491,0.01821
2.281141,0.0105,0.018226
2.291146,0.010509,0.018242
2.301151,0.010517,0.018257
2.311156,0.010525,0.018271
2.321161,0.010533,0.018284
2.331166,0.01054,0.018297
2.341171,0.010547,0.018308
2.351176,0.010554,0.01832
2.361181,0.01056,0.01833
2.371186,0.010565,0.01834
2.381191,0.01057,0.018349
2.391196,0.010575,0.018357
2.401201,0.01058,0.018365
2.411206,0.010584,0.018371
2.421211,0.010587,0.018377
2.431216,0.01059,0.018383
2.441221,0.010593,0.018387
2.451226,0.010595,0.018391
2.461231,0.010597,0.018395
2.471236,0.010598,0.018397
2.481241,0.010599,0.018399
2.491246,0.0106,0.0184
2.501251,0.0106,0.0184
2.511256,0.0106,0.0184
2.521261,0.010599,0.018398
2.531266,0.010598,0.018396
2.541271,0.010596,0.018394
2.551276,0.010594,0.01839
2.561281,0.010592,0.018386
2.571286,0.010589,0.018382
2.581291,0.010586,0.018376
2.591296,0.010583,0.01837
2.601301,0.010579,0.018363
2.611306,0.010574,0.018355
2.621311,0.010569,0.018347
2.631316,0.010564,0.018337
2.641321,0.010558,0.018328
2.651326,0.010552,0.018317
2.661331,0.010546,0.018306
2.671336,0.010539,0.018293
2.681341,0.010531,0.018281
2.691346,0.010523,0.018267
2.701351,0.010515,0.018253
2.711356,0.010507,0.018238
2.721361,0.010498,0.018222
2.731366,0.010488,0.018206
2.741371,0.010478,0.018189
2.751376,0.010468,0.018171
2.761381,0.010457,0.018152
2.771386,0.010446,0.018133
2.781391,0.010435,0.018113
2.791396,0.010423,0.018092
2.801401,0.01041,0.018071
2.811406,0.010398,0.018049
2.821411,0.010385,0.018026
2.831416,0.010371,0.018003
2.841421,0.010357,0.017978
2.851426,0.010343,0.017953
2.861431,0.010328,0.017928
2.871436,0.010313,0.017901
2.881441,0.010297,0.017874
2.891446,0.010281,0.017846
2.901451,0.010265,0.017818
2.911456,0.010248,0.017789
2.921461,0.010231,0.017759
2.931466,0.010213,0.017728
2.941471,0.010195,0.017697
2.951476,0.010176,0.017665
2.961481,0.010158,0.017632
2.971486,0.010138,0.017598
2.981491,0.010119,0.017564
2.991496,0.010099,0.01753
3.001501,0.010078,0.017494
3.011506,0.010057,0.017458
3.021511,0.010036,0.017421
3.031516,0.010014,0.017383
3.041521,0.009992,0.017345
3.051526,0.00997,0.017306
3.061531,0.009947,0.017267
3.071536,0.009924,0.017226
3.081541,0.0099,0.017185
3.091546,0.009876,0.017144
3.101551,0.009852,0.017101
3.111556,0.009827,0.017058
3.121561,0.009802,0.017015
3.131566,0.009776,0.01697
3.141571,0.00975,0.016925
3.151576,0.009724,0.016879
3.161581,0.009697,0.016833
3.171586,0.00967,0.016786
3.181591,0.009643,0.016738
3.191596,0.009615,0.01669
3.201601,0.009587,0.016641
3.211606,0.009558,0.016591
3.221611,0.009529,0.016541
3.231616,0.0095,0.01649
3.241621,0.00947,0.016438
3.251626,0.00944,0.016386
3.261631,0.009409,0.016333
3.271636,0.009378,0.016279
3.281641,0.009347,0.016225
3.291646,0.009316,0.01617
3.301651,0.009284,0.016115
3.311656,0.009251,0.016059
3.321661,0.009218,0.016002
3.331666,0.009185,0.015944
3.341671,0.009152,0.015886
3.351676,0.009118,0.015828
3.361681,0.009084,0.015768
3.371686,0.009049,0.015709
3.381691,0.009015,0.015648
3.391696,0.008979,0.015587
3.401701,0.008944,0.015525
3.411706,0.008908,0.015463
3.421711,0.008872,0.0154
3.431716,0.008835,0.015336
3.441721,0.008798,0.015272
3.451726,0.008761,0.015207
3.461731,0.008723,0.015142
3.471736,0.008685,0.015076
3.481741,0.008646,0.015009
3.491746,0.008608,0.014942
3.501751,0.008569,0.014874
3.511756,0.008529,0.014806
3.521761,0.00849,0.014737
3.531766,0.00845,0.014667
3.541771,0.008409,0.014597
3.551776,0.008368,0.014526
3.561781,0.008327,0.014455
3.571786,0.008286,0.014383
3.581791,0.008244,0.014311
3.591796,0.008202,0.014238
3.601801,0.00816,0.014164
3.611806,0.008117,0.01409
3.621811,0.008074,0.014015
3.631816,0.008031,0.01394
3.641821,0.007987,0.013864
3.651826,0.007943,0.013788
3.661831,0.007899,0.013711
3.671836,0.007854,0.013634
3.681841,0.007809,0.013556
3.691846,0.007764,0.013477
3.701851,0.007719,0.013398
3.711856,0.007673,0.013319
3.721861,0.007627,0.013239
3.731866,0.00758,0.013158
3.741871,0.007534,0.013077
3.751876,0.007486,0.012995
3.761881,0.007439,0.012913
3.771886,0.007392,0.012831
3.781891,0.007344,0.012747
3.791896,0.007295,0.012664
3.801901,0.007247,0.01258
3.811906,0.007198,0.012495
3.821911,0.007149,0.01241
3.831916,0.0071,0.012324
3.841921,0.00705,0.012238
3.851926,0.007,0.012151
3.861931,0.00695,0.012064
3.871936,0.0069,0.011977
3.881941,0.006849,0.011889
3.891946,0.006798,0.0118
3.901951,0.006747,0.011711
3.911956,0.006695,0.011622
3.921961,0.006643,0.011532
3.931966,0.006591,0.011442
3.941971,0.006539,0.011351
3.951976,0.006486,0.011259
3.961981,0.006434,0.011168
3.971986,0.00638,0.011076
3.981991,0.006327,0.010983
3.991996,0.006274,0.01089
4.002001,0.00622,0.010797
4.012006,0.006166,0.010703
4.022011,0.006111,0.010608
4.032016,0.006057,0.010514
4.042021,0.006002,0.010418
4.052026,0.005947,0.010323
4.062031,0.005892,0.010227
4.072036,0.005836,0.010131
4.082041,0.00578,0.010034
4.092046,0.005724,0.009937
4.102051,0.005668,0.009839
4.112056,0.005612,0.009741
4.122061,0.005555,0.009643
4.132066,0.005498,0.009544
4.142071,0.005441,0.009445
4.152076,0.005384,0.009346
4.162081,0.005326,0.009246
4.172086,0.005269,0.009146
4.182091,0.005211,0.009045
4.192096,0.005153,0.008944
4.202101,0.005094,0.008843
4.212106,0.005036,0.008741
4.222111,0.004977,0.008639
4.232116,0.004918,0.008537
4.242121,0.004859,0.008434
4.252126,0.0048,0.008332
4.262131,0.00474,0.008228
4.272136,0.00468,0.008125
4.282141,0.004621,0.008021
4.292146,0.004561,0.007916
4.302151,0.0045,0.007812
4.312156,0.00444,0.007707
4.322161,0.004379,0.007602
4.332166,0.004319,0.007496
4.342171,0.004258,0.00739
4.352176,0.004196,0.007284
4.362181,0.004135,0.007178
4.372186,0.004074,0.007071
4.382191,0.004012,0.006964
4.392196,0.00395,0.006857
4.402201,0.003888,0.00675
4.412206,0.003826,0.006642
4.422211,0.003764,0.006534
4.432216,0.003702,0.006426
4.442221,0.003639,0.006317
4.452226,0.003577,0.006209
4.462231,0.003514,0.0061
4.472236,0.003451,0.00599
4.482241,0.003388,0.005881
4.492246,0.003325,0.005771
4.502251,0.003261,0.005661
4.512256,0.003198,0.005551
4.522261,0.003134,0.005441
4.532266,0.003071,0.00533
4.542271,0.003007,0.005219
4.552276,0.002943,0.005108
4.562281,0.002879,0.004997
4.572286,0.002814,0.004886
4.582291,0.00275,0.004774
4.592296,0.002686,0.004662
4.602301,0.002621,0.00455
4.612306,0.002557,0.004438
4.622311,0.002492,0.004326
4.632316,0.002427,0.004213
4.642321,0.002362,0.0041
4.652326,0.002297,0.003988
4.662331,0.002232,0.003875
4.672336,0.002167,0.003761
4.682341,0.002102,0.003648
4.692346,0.002036,0.003535
4.702351,0.001971,0.003421
4.712356,0.001905,0.003307
4.722361,0.00184,0.003194
4.732366,0.001774,0.00308
4.742371,0.001708,0.002965
4.752376,0.001643,0.002851
4.762381,0.001577,0.002737
4.772386,0.001511,0.002622
4.782391,0.001445,0.002508
4.792396,0.001379,0.002393
4.802401,0.001313,0.002279
4.812406,0.001247,0.002164
4.822411,0.00118,0.002049
4.832416,0.001114,0.001934
4.842421,0.001048,0.001819
4.852426,0.000981,0.001704
4.862431,0.000915,0.001588
4.872436,0.000849,0.001473
4.882441,0.000782,0.001358
4.892446,0.000716,0.001242
4.902451,0.000649,0.001127
4.912456,0.000583,0.001012
4.922461,0.000516,0.000896
4.932466,0.00045,0.000781
4.942471,0.000383,0.000665
4.952476,0.000316,0.000549
4.962481,0.00025,0.000434
4.972486,0.000183,0.000318
4.982491,0.000117,0.000202
4.992496,5e-05,8.7e-05
5.002501,-1.7e-05,-2.9e-05
5.012506,-8.3e-05,-0.000145
5.022511,-0.00015,-0.00026
5.032516,-0.000217,-0.000376
5.042521,-0.000283,-0.000492
5.052526,-0.00035,-0.000607
5.062531,-0.000416,-0.000723
5.072536,-0.000483,-0.000838
5.082541,-0.000549,-0.000954
5.092546,-0.000616,-0.001069
5.102551,-0.000683,-0.001185
5.112556,-0.000749,-0.0013
5.122561,-0.000815,-0.001416
5.132566,-0.000882,-0.001531
5.142571,-0.000948,-0.001646
5.152576,-0.001015,-0.001761
5.162581,-0.001081,-0.001876
5.172586,-0.001147,-0.001991
5.182591,-0.001213,-0.002106
5.192596,-0.00128,-0.002221
5.202601,-0.001346,-0.002336
5.212606,-0.001412,-0.002451
5.222611,-0.001478,-0.002565
5.232616,-0.001544,-0.00268
5.242621,-0.00161,-0.002794
5.252626,-0.001675,-0.002908
5.262631,-0.001741,-0.003023
5.272636,-0.001807,-0.003137
5.282641,-0.001873,-0.00325
5.292646,-0.001938,-0.003364
5.302651,-0.002004,-0.003478
5.312656,-0.002069,-0.003591
5.322661,-0.002134,-0.003705
5.332666,-0.0022,-0.003818
5.342671,-0.002265,-0.003931
5.352676,-0.00233,-0.004044
5.362681,-0.002395,-0.004157
5.372686,-0.00246,-0.004269
5.382691,-0.002524,-0.004382
5.392696,-0.002589,-0.004494
5.402701,-0.002654,-0.004606
5.412706,-0.002718,-0.004718
5.422711,-0.002782,-0.00483
5.432716,-0.002847,-0.004941
5.442721,-0.002911,-0.005053
5.452726,-0.002975,-0.005164
5.462731,-0.003039,-0.005275
5.472736,-0.003102,-0.005385
5.482741,-0.003166,-0.005496
5.492746,-0.00323,-0.005606
5.502751,-0.003293,-0.005716
5.512756,-0.003356,-0.005826
5.522761,-0.003419,-0.005936
5.532766,-0.003482,-0.006045
5.542771,-0.003545,-0.006154
5.552776,-0.003608,-0.006263
5.562781,-0.003671,-0.006372
5.572786,-0.003733,-0.00648
5.582791,-0.003795,-0.006588
5.592796,-0.003857,-0.006696
5.602801,-0.003919,-0.006804
5.612806,-0.003981,-0.006911
5.622811,-0.004043,-0.007018
5.632816,-0.004104,-0.007125
5.642821,-0.004166,-0.007231
5.652826,-0.004227,-0.007337
5.662831,-0.004288,-0.007443
5.672836,-0.004349,-0.007549
5.682841,-0.00441,-0.007654
5.692846,-0.00447,-0.007759
5.702851,-0.00453,-0.007864
5.712856,-0.004591,-0.007969
5.722861,-0.004651,-0.008073
5.732866,-0.00471,-0.008176
5.742871,-0.00477,-0.00828
5.752876,-0.004829,-0.008383
5.762881,-0.004889,-0.008486
5.772886,-0.004948,-0.008588
5.782891,-0.005006,-0.00869
5.792896,-0.005065,-0.008792
5.802901,-0.005124,-0.008894
5.812906,-0.005182,-0.008995
5.822911,-0.00524,-0.009095
5.832916,-0.005298,-0.009196
5.842921,-0.005355,-0.009296
5.852926,-0.005413,-0.009395
5.862931,-0.00547,-0.009495
5.872936,-0.005527,-0.009594
5.882941,-0.005584,-0.009692
5.892946,-0.00564,-0.00979
5.902951,-0.005696,-0.009888
5.912956,-0.005752,-0.009985
5.922961,-0.005808,-0.010082
5.932966,-0.005864,-0.010179
5.942971,-0.005919,-0.010275
5.952976,-0.005974,-0.010371
5.962981,-0.006029,-0.010466
5.972986,-0.006084,-0.010561
5.982991,-0.006139,-0.010656
5.992996,-0.006193,-0.01075
6.003002,-0.006247,-0.010843
6.013007,-0.0063,-0.010937
6.023012,-0.006354,-0.011029
6.033017,-0.006407,-0.011122
6.043022,-0.00646,-0.011214
6.053027,-0.006513,-0.011305
6.063032,-0.006565,-0.011396
6.073037,-0.006617,-0.011487
6.083042,-0.006669,-0.011577
6.093047,-0.006721,-0.011667
6.103052,-0.006772,-0.011756
6.113057,-0.006823,-0.011845
6.123062,-0.006874,-0.011933
6.133067,-0.006925,-0.012021
6.143072,-0.006975,-0.012108
6.153077,-0.007025,-0.012195
6.163082,-0.007075,-0.012281
6.173087,-0.007125,-0.012367
6.183092,-0.007174,-0.012452
6.193097,-0.007223,-0.012537
6.203102,-0.007271,-0.012622
6.213107,-0.00732,-0.012706
6.223112,-0.007368,-0.012789
6.233117,-0.007415,-0.012872
6.243122,-0.007463,-0.012954
6.253127,-0.00751,-0.013036
6.263132,-0.007557,-0.013118
6.273137,-0.007603,-0.013199
6.283142,-0.00765,-0.013279
6.293147,-0.007696,-0.013359
6.303152,-0.007741,-0.013438
6.313157,-0.007787,-0.013517
6.323162,-0.007832,-0.013595
6.333167,-0.007877,-0.013673
6.343172,-0.007921,-0.01375
6.353177,-0.007965,-0.013826
6.363182,-0.008009,-0.013902
6.373187,-0.008052,-0.013978
6.383192,-0.008096,-0.014053
6.393197,-0.008138,-0.014127
6.403202,-0.008181,-0.014201
6.413207,-0.008223,-0.014274
6.423212,-0.008265,-0.014347
6.433217,-0.008307,-0.014419
6.443222,-0.008348,-0.014491
6.453227,-0.008389,-0.014562
6.463232,-0.008429,-0.014632
6.473237,-0.00847,-0.014702
6.483242,-0.00851,-0.014771
6.493247,-0.008549,-0.01484
6.503252,-0.008588,-0.014908
6.513257,-0.008627,-0.014975
6.523262,-0.008666,-0.015042
6.533267,-0.008704,-0.015109
6.543272,-0.008742,-0.015174
6.553277,-0.008779,-0.01524
6.563282,-0.008816,-0.015304
6.573287,-0.008853,-0.015368
6.583292,-0.00889,-0.015431
6.593297,-0.008926,-0.015494
6.603302,-0.008962,-0.015556
6.613307,-0.008997,-0.015618
6.623312,-0.009032,-0.015678
6.633317,-0.009067,-0.015739
6.643322,-0.009101,-0.015798
6.653327,-0.009135,-0.015857
6.663332,-0.009169,-0.015916
6.673337,-0.009202,-0.015973
6.683342,-0.009235,-0.01603
6.693347,-0.009267,-0.016087
6.703352,-0.0093,-0.016143
6.713357,-0.009331,-0.016198
6.723362,-0.009363,-0.016252
6.733367,-0.009394,-0.016306
6.743372,-0.009425,-0.01636
6.753377,-0.009455,-0.016412
6.763382,-0.009485,-0.016464
6.773387,-0.009514,-0.016515
6.783392,-0.009544,-0.016566
6.793397,-0.009572,-0.016616
6.803402,-0.009601,-0.016666
6.813407,-0.009629,-0.016714
6.823412,-0.009657,-0.016762
6.833417,-0.009684,-0.01681
6.843422,-0.009711,-0.016856
6.853427,-0.009737,-0.016902
6.863432,-0.009763,-0.016948
6.873437,-0.009789,-0.016992
6.883442,-0.009815,-0.017036
6.893447,-0.009839,-0.01708
6.903452,-0.009864,-0.017123
6.913457,-0.009888,-0.017165
6.923462,-0.009912,-0.017206
6.933467,-0.009935,-0.017247
6.943472,-0.009959,-0.017286
6.953477,-0.009981,-0.017326
6.963482,-0.010003,-0.017364
6.973487,-0.010025,-0.017402
6.983492,-0.010047,-0.01744
6.993497,-0.010068,-0.017476
7.003502,-0.010088,-0.017512
7.013507,-0.010109,-0.017547
7.023512,-0.010128,-0.017582
7.033517,-0.010148,-0.017615
7.043522,-0.010167,-0.017648
7.053527,-0.010186,-0.017681
7.063532,-0.010204,-0.017712
7.073537,-0.010222,-0.017743
7.083542,-0.010239,-0.017774
7.093547,-0.010256,-0.017803
7.103552,-0.010273,-0.017832
7.113557,-0.010289,-0.01786
7.123562,-0.010305,-0.017888
7.133567,-0.01032,-0.017914
7.143572,-0.010335,-0.017941
7.153577,-0.01035,-0.017966
7.163582,-0.010364,-0.01799
7.173587,-0.010378,-0.018014
7.183592,-0.010391,-0.018038
7.193597,-0.010404,-0.01806
7.203602,-0.010417,-0.018082
7.213607,-0.010429,-0.018103
7.223612,-0.010441,-0.018123
7.233617,-0.010452,-0.018143
7.243622,-0.010463,-0.018162
7.253627,-0.010473,-0.01818
7.263632,-0.010483,-0.018197
7.273637,-0.010493,-0.018214
7.283642,-0.010502,-0.01823
7.293647,-0.010511,-0.018246
7.303652,-0.010519,-0.01826
7.313657,-0.010527,-0.018274
7.323662,-0.010535,-0.018287
7.333667,-0.010542,-0.0183
7.343672,-0.010549,-0.018311
7.353677,-0.010555,-0.018322
7.363682,-0.010561,-0.018333
7.373687,-0.010567,-0.018342
7.383692,-0.010572,-0.018351
7.393697,-0.010576,-0.018359
7.403702,-0.010581,-0.018366
7.413707,-0.010584,-0.018373
7.423712,-0.010588,-0.018379
7.433717,-0.010591,-0.018384
7.443722,-0.010593,-0.018388
7.453727,-0.010596,-0.018392
7.463732,-0.010597,-0.018395
7.473737,-0.010599,-0.018397
7.483742,-0.010599,-0.018399
7.493747,-0.0106,-0.0184
7.503752,-0.0106,-0.0184
7.513757,-0.0106,-0.018399
7.523762,-0.010599,-0.018398
7.533767,-0.010598,-0.018396
7.543772,-0.010596,-0.018393
7.553777,-0.010594,-0.018389
7.563782,-0.010591,-0.018385
7.573787,-0.010589,-0.01838
7.583792,-0.010585,-0.018375
7.593797,-0.010582,-0.018368
7.603802,-0.010577,-0.018361
7.613807,-0.010573,-0.018353
7.623812,-0.010568,-0.018344
7.633817,-0.010563,-0.018335
7.643822,-0.010557,-0.018325
7.653827,-0.010551,-0.018314
7.663832,-0.010544,-0.018303
7.673837,-0.010537,-0.01829
7.683842,-0.010529,-0.018277
7.693847,-0.010521,-0.018264
7.703852,-0.010513,-0.018249
7.713857,-0.010504,-0.018234
7.723862,-0.010495,-0.018218
7.733867,-0.010486,-0.018202
7.743872,-0.010476,-0.018184
7.753877,-0.010465,-0.018166
7.763882,-0.010455,-0.018148
7.773887,-0.010443,-0.018128
7.783892,-0.010432,-0.018108
7.793897,-0.01042,-0.018087
7.803902,-0.010407,-0.018066
7.813907,-0.010394,-0.018043
7.823912,-0.010381,-0.01802
7.833917,-0.010368,-0.017997
7.843922,-0.010353,-0.017972
7.853927,-0.010339,-0.017947
7.863932,-0.010324,-0.017921
7.873937,-0.010309,-0.017894
7.883942,-0.010293,-0.017867
7.893947,-0.010277,-0.017839
7.903952,-0.01026,-0.017811
7.913957,-0.010243,-0.017781
7.923962,-0.010226,-0.017751
7.933967,-0.010208,-0.01772
7.943972,-0.01019,-0.017689
7.953977,-0.010172,-0.017657
7.963982,-0.010153,-0.017624
7.973987,-0.010133,-0.01759
7.983992,-0.010114,-0.017556
7.993997,-0.010093,-0.017521
8.004002,-0.010073,-0.017485
8.014007,-0.010052,-0.017449
8.024012,-0.010031,-0.017412
8.034017,-0.010009,-0.017374
8.044022,-0.009987,-0.017335
8.054027,-0.009964,-0.017296
8.064032,-0.009941,-0.017257
8.074037,-0.009918,-0.017216
8.084042,-0.009894,-0.017175
8.094047,-0.00987,-0.017133
8.104052,-0.009846,-0.017091
8.114057,-0.009821,-0.017047
8.124062,-0.009796,-0.017004
8.134067,-0.00977,-0.016959
8.144072,-0.009744,-0.016914
8.154077,-0.009717,-0.016868
8.164082,-0.009691,-0.016821
8.174087,-0.009663,-0.016774
8.184092,-0.009636,-0.016726
8.194097,-0.009608,-0.016678
8.204102,-0.00958,-0.016629
8.214107,-0.009551,-0.016579
8.224112,-0.009522,-0.016528
8.234117,-0.009492,-0.016477
8.244122,-0.009462,-0.016425
8.254127,-0.009432,-0.016373
8.264132,-0.009402,-0.01632
8.274137,-0.009371,-0.016266
8.284142,-0.009339,-0.016212
8.294147,-0.009308,-0.016157
8.304152,-0.009275,-0.016101
8.314157,-0.009243,-0.016045
8.324162,-0.00921,-0.015988
8.334167,-0.009177,-0.01593
8.344172,-0.009144,-0.015872
8.354177,-0.00911,-0.015813
8.364182,-0.009075,-0.015754
8.374187,-0.009041,-0.015693
8.384192,-0.009006,-0.015633
8.394197,-0.008971,-0.015571
8.404202,-0.008935,-0.01551
8.414207,-0.008899,-0.015447
8.424212,-0.008862,-0.015384
8.434217,-0.008826,-0.01532
8.444222,-0.008789,-0.015256
8.454227,-0.008751,-0.015191
8.464232,-0.008713,-0.015125
8.474237,-0.008675,-0.015059
8.484242,-0.008637,-0.014992
8.494247,-0.008598,-0.014925
8.504252,-0.008559,-0.014857
8.514257,-0.008519,-0.014788
8.524262,-0.00848,-0.014719
8.534267,-0.008439,-0.01465
8.544272,-0.008399,-0.014579
8.554277,-0.008358,-0.014508
8.564282,-0.008317,-0.014437
8.574287,-0.008276,-0.014365
8.584292,-0.008234,-0.014293
8.594297,-0.008192,-0.014219
8.604302,-0.008149,-0.014146
8.614307,-0.008106,-0.014071
8.624312,-0.008063,-0.013997
8.634317,-0.00802,-0.013921
8.644322,-0.007976,-0.013845
8.654327,-0.007932,-0.013769
8.664332,-0.007888,-0.013692
8.674337,-0.007843,-0.013614
8.684342,-0.007798,-0.013536
8.694347,-0.007753,-0.013458
8.704352,-0.007707,-0.013379
8.714357,-0.007661,-0.013299
8.724362,-0.007615,-0.013219
8.734367,-0.007569,-0.013138
8.744372,-0.007522,-0.013057
8.754377,-0.007475,-0.012975
8.764382,-0.007427,-0.012893
8.774387,-0.00738,-0.01281
8.784392,-0.007332,-0.012727
8.794397,-0.007283,-0.012643
8.804402,-0.007235,-0.012559
8.814407,-0.007186,-0.012474
8.824412,-0.007137,-0.012388
8.834417,-0.007087,-0.012303
8.844422,-0.007038,-0.012216
8.854427,-0.006988,-0.01213
8.864432,-0.006938,-0.012042
8.874437,-0.006887,-0.011955
8.884442,-0.006836,-0.011867
8.894447,-0.006785,-0.011778
8.904452,-0.006734,-0.011689
8.914457,-0.006682,-0.011599
8.924462,-0.00663,-0.011509
8.934467,-0.006578,-0.011419
8.944472,-0.006526,-0.011328
8.954477,-0.006473,-0.011237
8.964482,-0.00642,-0.011145
8.974487,-0.006367,-0.011052
8.984492,-0.006314,-0.01096
8.994497,-0.00626,-0.010867
9.004502,-0.006206,-0.010773
9.014507,-0.006152,-0.010679
9.024512,-0.006098,-0.010585
9.034517,-0.006043,-0.01049
9.044522,-0.005988,-0.010395
9.054527,-0.005933,-0.010299
9.064532,-0.005878,-0.010203
9.074537,-0.005822,-0.010106
9.084542,-0.005766,-0.01001
9.094547,-0.00571,-0.009912
9.104552,-0.005654,-0.009815
9.114557,-0.005598,-0.009717
9.124562,-0.005541,-0.009618
9.134567,-0.005484,-0.009519
9.144572,-0.005427,-0.00942
9.154577,-0.00537,-0.009321
9.164582,-0.005312,-0.009221
9.174587,-0.005254,-0.009121
9.184592,-0.005196,-0.00902
9.194597,-0.005138,-0.008919
9.204602,-0.00508,-0.008818
9.214607,-0.005021,-0.008716
9.224612,-0.004962,-0.008614
9.234617,-0.004903,-0.008511
9.244622,-0.004844,-0.008409
9.254627,-0.004785,-0.008306
9.264632,-0.004725,-0.008202
9.274637,-0.004666,-0.008099
9.284642,-0.004606,-0.007995
9.294647,-0.004545,-0.00789
9.304652,-0.004485,-0.007786
9.314657,-0.004425,-0.007681
9.324662,-0.004364,-0.007575
9.334667,-0.004303,-0.00747
9.344672,-0.004242,-0.007364
9.354677,-0.004181,-0.007258
9.364682,-0.00412,-0.007151
9.374687,-0.004058,-0.007045
9.384692,-0.003997,-0.006938
9.394697,-0.003935,-0.00683
9.404702,-0.003873,-0.006723
9.414707,-0.003811,-0.006615
9.424712,-0.003749,-0.006507
9.434717,-0.003686,-0.006399
9.444722,-0.003624,-0.00629
9.454727,-0.003561,-0.006181
9.464732,-0.003498,-0.006072
9.474737,-0.003435,-0.005963
9.484742,-0.003372,-0.005853
9.494747,-0.003309,-0.005744
9.504752,-0.003245,-0.005634
9.514757,-0.003182,-0.005523
9.524762,-0.003118,-0.005413
9.534767,-0.003055,-0.005302
9.544772,-0.002991,-0.005191
9.554777,-0.002927,-0.00508
9.564782,-0.002863,-0.004969
9.574787,-0.002798,-0.004858
9.584792,-0.002734,-0.004746
9.594797,-0.00267,-0.004634
9.604802,-0.002605,-0.004522
9.614807,-0.00254,-0.00441
9.624812,-0.002476,-0.004298
9.634817,-0.002411,-0.004185
9.644822,-0.002346,-0.004072
9.654827,-0.002281,-0.003959
9.664832,-0.002216,-0.003846
9.674837,-0.002151,-0.003733
9.684842,-0.002085,-0.00362
9.694847,-0.00202,-0.003506
9.704852,-0.001954,-0.003393
9.714857,-0.001889,-0.003279
9.724862,-0.001823,-0.003165
9.734867,-0.001758,-0.003051
9.744872,-0.001692,-0.002937
9.754877,-0.001626,-0.002823
9.764882,-0.00156,-0.002708
9.774887,-0.001494,-0.002594
9.784892,-0.001428,-0.002479
9.794897,-0.001362,-0.002365
9.804902,-0.001296,-0.00225
9.814907,-0.00123,-0.002135
9.824912,-0.001164,-0.00202
9.834917,-0.001098,-0.001905
9.844922,-0.001031,-0.00179
9.854927,-0.000965,-0.001675
9.864932,-0.000898,-0.00156
9.874937,-0.000832,-0.001444
9.884942,-0.000766,-0.001329
9.894947,-0.000699,-0.001214
9.904952,-0.000633,-0.001098
9.914957,-0.000566,-0.000983
9.924962,-0.0005,-0.000867
9.934967,-0.000433,-0.000752
9.944972,-0.000366,-0.000636
9.954977,-0.0003,-0.00052
9.964982,-0.000233,-0.000405
9.974987,-0.000167,-0.000289
9.984992,-0.0001,-0.000174
9.994997,-3.3e-05,-5.8e-05
10.005003,3.3e-05,5.8e-05
10.015008,0.0001,0.000174
10.025013,0.000167,0.000289
10.035018,0.000233,0.000405
10.045023,0.0003,0.00052
10.055028,0.000366,0.000636
10.065033,0.000433,0.000752
10.075038,0.0005,0.000867
10.085043,0.000566,0.000983
10.095048,0.000633,0.001098
10.105053,0.000699,0.001214
10.115058,0.000766,0.001329
10.125063,0.000832,0.001444
10.135068,0.000898,0.00156
10.145073,0.000965,0.001675
10.155078,0.001031,0.00179
10.165083,0.001098,0.001905
10.175088,0.001164,0.00202
10.185093,0.00123,0.002135
10.195098,0.001296,0.00225
10.205103,0.001362,0.002365
10.215108,0.001428,0.002479
10.225113,0.001494,0.002594
10.235118,0.00156,0.002708
10.245123,0.001626,0.002823
10.255128,0.001692,0.002937
10.265133,0.001758,0.003051
10.275138,0.001823,0.003165
10.285143,0.001889,0.003279
10.295148,0.001954,0.003393
10.305153,0.00202,0.003506
10.315158,0.002085,0.00362
10.325163,0.002151,0.003733
10.335168,0.002216,0.003846
10.345173,0.002281,0.003959
10.355178,0.002346,0.004072
10.365183,0.002411,0.004185
10.375188,0.002476,0.004298
10.385193,0.00254,0.00441
10.395198,0.002605,0.004522
10.405203,0.00267,0.004634
10.415208,0.002734,0.004746
10.425213,0.002798,0.004858
10.435218,0.002863,0.004969
10.445223,0.002927,0.00508
10.455228,0.002991,0.005191
10.465233,0.003055,0.005302
10.475238,0.003118,0.005413
10.485243,0.003182,0.005523
10.495248,0.003245,0.005634
10.505253,0.003309,0.005744
10.515258,0.003372,0.005853
10.525263,0.003435,0.005963
10.535268,0.003498,0.006072
10.545273,0.003561,0.006181
10.555278,0.003624,0.00629
10.565283,0.003686,0.006399
10.575288,0.003749,0.006507
10.585293,0.003811,0.006615
10.595298,0.003873,0.006723
10.605303,0.003935,0.00683
10.615308,0.003997,0.006938
10.625313,0.004058,0.007045
10.635318,0.00412,0.007151
10.645323,0.004181,0.007258
10.655328,0.004242,0.007364
10.665333,0.004303,0.00747
10.675338,0.004364,0.007575
10.685343,0.004425,0.007681
10.695348,0.004485,0.007786
10.705353,0.004545,0.00789
10.715358,0.004606,0.007995
10.725363,0.004666,0.008099
10.735368,0.004725,0.008202
10.745373,0.004785,0.008306
10.755378,0.004844,0.008409
10.765383,0.004903,0.008511
10.775388,0.004962,0.008614
10.785393,0.005021,0.008716
10.795398,0.00508,0.008818
10.805403,0.005138,0.008919
10.815408,0.005196,0.00902
10.825413,0.005254,0.009121
10.835418,0.005312,0.009221
10.845423,0.00537,0.009321
10.855428,0.005427,0.00942
10.865433,0.005484,0.009519
10.875438,0.005541,0.009618
10.885443,0.005598,0.009717
10.895448,0.005654,0.009815
10.905453,0.00571,0.009912
10.915458,0.005766,0.01001
10.925463,0.005822,0.010106
10.935468,0.005878,0.010203
10.945473,0.005933,0.010299
10.955478,0.005988,0.010395
10.965483,0.006043,0.01049
10.975488,0.006098,0.010585
10.985493,0.006152,0.010679
10.995498,0.006206,0.010773
11.005503,0.00626,0.010867
11.015508,0.006314,0.01096
11.025513,0.006367,0.011052
11.035518,0.00642,0.011145
11.045523,0.006473,0.011237
11.055528,0.006526,0.011328
11.065533,0.006578,0.011419
11.075538,0.00663,0.011509
11.085543,0.006682,0.011599
11.095548,0.006734,0.011689
11.105553,0.006785,0.011778
11.115558,0.006836,0.011867
11.125563,0.006887,0.011955
11.135568,0.006938,0.012042
11.145573,0.006988,0.01213
11.155578,0.007038,0.012216
11.165583,0.007087,0.012303
11.175588,0.007137,0.012388
11.185593,0.007186,0.012474
11.195598,0.007235,0.012559
11.205603,0.007283,0.012643
11.215608,0.007332,0.012727
11.225613,0.00738,0.01281
11.235618,0.007427,0.012893
11.245623,0.007475,0.012975
11.255628,0.007522,0.013057
11.265633,0.007569,0.013138
11.275638,0.007615,0.013219
11.285643,0.007661,0.013299
11.295648,0.007707,0.013379
11.305653,0.007753,0.013458
11.315658,0.007798,0.013536
11.325663,0.007843,0.013614
11.335668,0.007888,0.013692
11.345673,0.007932,0.013769
11.355678,0.007976,0.013845
11.365683,0.00802,0.013921
11.375688,0.008063,0.013997
11.385693,0.008106,0.014071
11.395698,0.008149,0.014146
11.405703,0.008192,0.014219
11.415708,0.008234,0.014293
11.425713,0.008276,0.014365
11.435718,0.008317,0.014437
11.445723,0.008358,0.014508
11.455728,0.008399,0.014579
11.465733,0.008439,0.01465
11.475738,0.00848,0.014719
11.485743,0.008519,0.014788
11.495748,0.008559,0.014857
11.505753,0.008598,0.014925
11.515758,0.008637,0.014992
11.525763,0.008675,0.015059
11.535768,0.008713,0.015125
11.545773,0.008751,0.015191
11.555778,0.008789,0.015256
11.565783,0.008826,0.01532
11.575788,0.008862,0.015384
11.585793,0.008899,0.015447
11.595798,0.008935,0.01551
11.605803,0.008971,0.015571
11.615808,0.009006,0.015633
11.625813,0.009041,0.015693
11.635818,0.009075,0.015754
11.645823,0.00911,0.015813
11.655828,0.009144,0.015872
11.665833,0.009177,0.01593
11.675838,0.00921,0.015988
11.685843,0.009243,0.016045
11.695848,0.009275,0.016101
11.705853,0.009308,0.016157
11.715858,0.009339,0.016212
11.725863,0.009371,0.016266
11.735868,0.009402,0.01632
11.745873,0.009432,0.016373
11.755878,0.009462,0.016425
11.765883,0.009492,0.016477
11.775888,0.009522,0.016528
11.785893,0.009551,0.016579
11.795898,0.00958,0.016629
11.805903,0.009608,0.016678
11.815908,0.009636,0.016726
11.825913,0.009663,0.016774
11.835918,0.009691,0.016821
11.845923,0.009717,0.016868
11.855928,0.009744,0.016914
11.865933,0.00977,0.016959
11.875938,0.009796,0.017004
11.885943,0.009821,0.017047
11.895948,0.009846,0.017091
11.905953,0.00987,0.017133
11.915958,0.009894,0.017175
11.925963,0.009918,0.017216
11.935968,0.009941,0.017257
11.945973,0.009964,0.017296
11.955978,0.009987,0.017335
11.965983,0.010009,0.017374
11.975988,0.010031,0.017412
11.985993,0.010052,0.017449
11.995998,0.010073,0.017485
12.006003,0.010093,0.017521
12.016008,0.010114,0.017556
12.026013,0.010133,0.01759
12.036018,0.010153,0.017624
12.046023,0.010172,0.017657
12.056028,0.01019,0.017689
12.066033,0.010208,0.01772
12.076038,0.010226,0.017751
12.086043,0.010243,0.017781
12.096048,0.01026,0.017811
12.106053,0.010277,0.017839
12.116058,0.010293,0.017867
12.126063,0.010309,0.017894
12.136068,0.010324,0.017921
12.146073,0.010339,0.017947
12.156078,0.010353,0.017972
12.166083,0.010368,0.017997
12.176088,0.010381,0.01802
12.186093,0.010394,0.018043
12.196098,0.010407,0.018066
12.206103,0.01042,0.018087
12.216108,0.010432,0.018108
12.226113,0.010443,0.018128
12.236118,0.010455,0.018148
12.246123,0.010465,0.018166
12.256128,0.010476,0.018184
12.266133,0.010486,0.018202
12.276138,0.010495,0.018218
12.286143,0.010504,0.018234
12.296148,0.010513,0.018249
12.306153,0.010521,0.018264
12.316158,0.010529,0.018277
12.326163,0.010537,0.01829
12.336168,0.010544,0.018303
12.346173,0.010551,0.018314
12.356178,0.010557,0.018325
12.366183,0.010563,0.018335
12.376188,0.010568,0.018344
12.386193,0.010573,0.018353
12.396198,0.010577,0.018361
12.406203,0.010582,0.018368
12.416208,0.010585,0.018375
12.426213,0.010589,0.01838
12.436218,0.010591,0.018385
12.446223,0.010594,0.018389
12.456228,0.010596,0.018393
12.466233,0.010598,0.018396
12.476238,0.010599,0.018398
12.486243,0.0106,0.018399
12.496248,0.0106,0.0184
12.506253,0.0106,0.0184
12.516258,0.010599,0.018399
12.526263,0.010599,0.018397
12.536268,0.010597,0.018395
12.546273,0.010596,0.018392
12.556278,0.010593,0.018388
12.566283,0.010591,0.018384
12.576288,0.010588,0.018379
12.586293,0.010584,0.018373
12.596298,0.010581,0.018366
12.606303,0.010576,0.018359
12.616308,0.010572,0.018351
12.626313,0.010567,0.018342
12.636318,0.010561,0.018333
12.646323,0.010555,0.018322
12.656328,0.010549,0.018311
12.666333,0.010542,0.0183
12.676338,0.010535,0.018287
12.686343,0.010527,0.018274
12.696348,0.010519,0.01826
12.706353,0.010511,0.018246
12.716358,0.010502,0.01823
12.726363,0.010493,0.018214
12.736368,0.010483,0.018197
12.746373,0.010473,0.01818
12.756378,0.010463,0.018162
12.766383,0.010452,0.018143
12.776388,0.010441,0.018123
12.786393,0.010429,0.018103
12.796398,0.010417,0.018082
12.806403,0.010404,0.01806
12.816408,0.010391,0.018038
12.826413,0.010378,0.018014
12.836418,0.010364,0.01799
12.846423,0.01035,0.017966
12.856428,0.010335,0.017941
12.866433,0.01032,0.017914
12.876438,0.010305,0.017888
12.886443,0.010289,0.01786
12.896448,0.010273,0.017832
12.906453,0.010256,0.017803
12.916458,0.010239,0.017774
12.926463,0.010222,0.017743
12.936468,0.010204,0.017712
12.946473,0.010186,0.017681
12.956478,0.010167,0.017648
12.966483,0.010148,0.017615
12.976488,0.010128,0.017582
12.986493,0.010109,0.017547
12.996498,0.010088,0.017512
13.006503,0.010068,0.017476
13.016508,0.010047,0.01744
13.026513,0.010025,0.017402
13.036518,0.010003,0.017364
13.046523,0.009981,0.017326
13.056528,0.009959,0.017286
13.066533,0.009935,0.017247
13.076538,0.009912,0.017206
13.086543,0.009888,0.017165
13.096548,0.009864,0.017123
13.106553,0.009839,0.01708
13.116558,0.009815,0.017036
13.126563,0.009789,0.016992
13.136568,0.009763,0.016948
13.146573,0.009737,0.016902
13.156578,0.009711,0.016856
13.166583,0.009684,0.01681
13.176588,0.009657,0.016762
13.186593,0.009629,0.016714
13.196598,0.009601,0.016666
13.206603,0.009572,0.016616
13.216608,0.009544,0.016566
13.226613,0.009514,0.016515
13.236618,0.009485,0.016464
13.246623,0.009455,0.016412
13.256628,0.009425,0.01636
13.266633,0.009394,0.016306
13.276638,0.009363,0.016252
13.286643,0.009331,0.016198
13.296648,0.0093,0.016143
13.306653,0.009267,0.016087
13.316658,0.009235,0.01603
13.326663,0.009202,0.015973
13.336668,0.009169,0.015916
13.346673,0.009135,0.015857
13.356678,0.009101,0.015798
13.366683,0.009067,0.015739
13.376688,0.009032,0.015678
13.386693,0.008997,0.015618
13.396698,0.008962,0.015556
13.406703,0.008926,0.015494
13.416708,0.00889,0.015431
13.426713,0.008853,0.015368
13.436718,0.008816,0.015304
13.446723,0.008779,0.01524
13.456728,0.008742,0.015174
13.466733,0.008704,0.015109
13.476738,0.008666,0.015042
13.486743,0.008627,0.014975
13.496748,0.008588,0.014908
13.506753,0.008549,0.01484
13.516758,0.00851,0.014771
13.526763,0.00847,0.014702
13.536768,0.008429,0.014632
13.546773,0.008389,0.014562
13.556778,0.008348,0.014491
13.566783,0.008307,0.014419
13.576788,0.008265,0.014347
13.586793,0.008223,0.014274
13.596798,0.008181,0.014201
13.606803,0.008138,0.014127
13.616808,0.008096,0.014053
13.626813,0.008052,0.013978
13.636818,0.008009,0.013902
13.646823,0.007965,0.013826
13.656828,0.007921,0.01375
13.666833,0.007877,0.013673
13.676838,0.007832,0.013595
13.686843,0.007787,0.013517
13.696848,0.007741,0.013438
13.706853,0.007696,0.013359
13.716858,0.00765,0.013279
13.726863,0.007603,0.013199
13.736868,0.007557,0.013118
13.746873,0.00751,0.013036
13.756878,0.007463,0.012954
13.766883,0.007415,0.012872
13.776888,0.007368,0.012789
13.786893,0.00732,0.012706
13.796898,0.007271,0.012622
13.806903,0.007223,0.012537
13.816908,0.007174,0.012452
13.826913,0.007125,0.012367
13.836918,0.007075,0.012281
13.846923,0.007025,0.012195
13.856928,0.006975,0.012108
13.866933,0.006925,0.012021
13.876938,0.006874,0.011933
13.886943,0.006823,0.011845
13.896948,0.006772,0.011756
13.906953,0.006721,0.011667
13.916958,0.006669,0.011577
13.926963,0.006617,0.011487
13.936968,0.006565,0.011396
13.946973,0.006513,0.011305
13.956978,0.00646,0.011214
13.966983,0.006407,0.011122
13.976988,0.006354,0.011029
13.986993,0.0063,0.010937
13.996998,0.006247,0.010843
14.007004,0.006193,0.01075
14.017009,0.006139,0.010656
14.027014,0.006084,0.010561
14.037019,0.006029,0.010466
14.047024,0.005974,0.010371
14.057029,0.005919,0.010275
14.067034,0.005864,0.010179
14.077039,0.005808,0.010082
14.087044,0.005752,0.009985
14.097049,0.005696,0.009888
14.107054,0.00564,0.00979
14.117059,0.005584,0.009692
14.127064,0.005527,0.009594
14.137069,0.00547,0.009495
14.147074,0.005413,0.009395
14.157079,0.005355,0.009296
14.167084,0.005298,0.009196
14.177089,0.00524,0.009095
14.187094,0.005182,0.008995
14.197099,0.005124,0.008894
14.207104,0.005065,0.008792
14.217109,0.005006,0.00869
14.227114,0.004948,0.008588
14.237119,0.004889,0.008486
14.247124,0.004829,0.008383
14.257129,0.00477,0.00828
14.267134,0.00471,0.008176
14.277139,0.004651,0.008073
14.287144,0.004591,0.007969
14.297149,0.00453,0.007864
14.307154,0.00447,0.007759
14.317159,0.00441,0.007654
14.327164,0.004349,0.007549
14.337169,0.004288,0.007443
14.347174,0.004227,0.007337
14.357179,0.004166,0.007231
14.367184,0.004104,0.007125
14.377189,0.004043,0.007018
14.387194,0.003981,0.006911
14.397199,0.003919,0.006804
14.407204,0.003857,0.006696
14.417209,0.003795,0.006588
14.427214,0.003733,0.00648
14.437219,0.003671,0.006372
14.447224,0.003608,0.006263
14.457229,0.003545,0.006154
14.467234,0.003482,0.006045
14.477239,0.003419,0.005936
14.487244,0.003356,0.005826
14.497249,0.003293,0.005716
14.507254,0.00323,0.005606
14.517259,0.003166,0.005496
14.527264,0.003102,0.005385
14.537269,0.003039,0.005275
14.547274,0.002975,0.005164
14.557279,0.002911,0.005053
14.567284,0.002847,0.004941
14.577289,0.002782,0.00483
14.587294,0.002718,0.004718
14.597299,0.002654,0.004606
14.607304,0.002589,0.004494
14.617309,0.002524,0.004382
14.627314,0.00246,0.004269
14.637319,0.002395,0.004157
14.647324,0.00233,0.004044
14.657329,0.002265,0.003931
14.667334,0.0022,0.003818
14.677339,0.002134,0.003705
14.687344,0.002069,0.003591
14.697349,0.002004,0.003478
14.707354,0.001938,0.003364
14.717359,0.001873,0.00325
14.727364,0.001807,0.003137
14.737369,0.001741,0.003023
14.747374,0.001675,0.002908
14.757379,0.00161,0.002794
14.767384,0.001544,0.00268
14.777389,0.001478,0.002565
14.787394,0.001412,0.002451
14.797399,0.001346,0.002336
14.807404,0.00128,0.002221
14.817409,0.001213,0.002106
14.827414,0.001147,0.001991
14.837419,0.001081,0.001876
14.847424,0.001015,0.001761
14.857429,0.000948,0.001646
14.867434,0.000882,0.001531
14.877439,0.000815,0.001416
14.887444,0.000749,0.0013
14.897449,0.000683,0.001185
14.907454,0.000616,0.001069
14.917459,0.000549,0.000954
14.927464,0.000483,0.000838
14.937469,0.000416,0.000723
14.947474,0.00035,0.000607
14.957479,0.000283,0.000492
14.967484,0.000217,0.000376
14.977489,0.00015,0.00026
14.987494,8.3e-05,0.000145
14.997499,1.7e-05,2.9e-05
15.007504,-5e-05,-8.7e-05
15.017509,-0.000117,-0.000202
15.027514,-0.000183,-0.000318
15.037519,-0.00025,-0.000434
15.047524,-0.000316,-0.000549
15.057529,-0.000383,-0.000665
15.067534,-0.00045,-0.000781
15.077539,-0.000516,-0.000896
15.087544,-0.000583,-0.001012
15.097549,-0.000649,-0.001127
15.107554,-0.000716,-0.001242
15.117559,-0.000782,-0.001358
15.127564,-0.000849,-0.001473
15.137569,-0.000915,-0.001588
15.147574,-0.000981,-0.001704
15.157579,-0.001048,-0.001819
15.167584,-0.001114,-0.001934
15.177589,-0.00118,-0.002049
15.187594,-0.001247,-0.002164
15.197599,-0.001313,-0.002279
15.207604,-0.001379,-0.002393
15.217609,-0.001445,-0.002508
15.227614,-0.001511,-0.002622
15.237619,-0.001577,-0.002737
15.247624,-0.001643,-0.002851
15.257629,-0.001708,-0.002965
15.267634,-0.001774,-0.00308
15.277639,-0.00184,-0.003194
15.287644,-0.001905,-0.003307
15.297649,-0.001971,-0.003421
15.307654,-0.002036,-0.003535
15.317659,-0.002102,-0.003648
15.327664,-0.002167,-0.003761
15.337669,-0.002232,-0.003875
15.347674,-0.002297,-0.003988
15.357679,-0.002362,-0.0041
15.367684,-0.002427,-0.004213
15.377689,-0.002492,-0.004326
15.387694,-0.002557,-0.004438
15.397699,-0.002621,-0.00455
15.407704,-0.002686,-0.004662
15.417709,-0.00275,-0.004774
15.427714,-0.002814,-0.004886
15.437719,-0.002879,-0.004997
15.447724,-0.002943,-0.005108
15.457729,-0.003007,-0.005219
15.467734,-0.003071,-0.00533
15.477739,-0.003134,-0.005441
15.487744,-0.003198,-0.005551
15.497749,-0.003261,-0.005661
15.507754,-0.003325,-0.005771
15.517759,-0.003388,-0.005881
15.527764,-0.003451,-0.00599
15.537769,-0.003514,-0.0061
15.547774,-0.003577,-0.006209
15.557779,-0.003639,-0.006317
15.567784,-0.003702,-0.006426
15.577789,-0.003764,-0.006534
15.587794,-0.003826,-0.006642
15.597799,-0.003888,-0.00675
15.607804,-0.00395,-0.006857
15.617809,-0.004012,-0.006964
15.627814,-0.004074,-0.007071
15.637819,-0.004135,-0.007178
15.647824,-0.004196,-0.007284
15.657829,-0.004258,-0.00739
15.667834,-0.004319,-0.007496
15.677839,-0.004379,-0.007602
15.687844,-0.00444,-0.007707
15.697849,-0.0045,-0.007812
15.707854,-0.004561,-0.007916
15.717859,-0.004621,-0.008021
15.727864,-0.00468,-0.008125
15.737869,-0.00474,-0.008228
15.747874,-0.0048,-0.008332
15.757879,-0.004859,-0.008434
15.767884,-0.004918,-0.008537
15.777889,-0.004977,-0.008639
15.787894,-0.005036,-0.008741
15.797899,-0.005094,-0.008843
15.807904,-0.005153,-0.008944
15.817909,-0.005211,-0.009045
15.827914,-0.005269,-0.009146
15.837919,-0.005326,-0.009246
15.847924,-0.005384,-0.009346
15.857929,-0.005441,-0.009445
15.867934,-0.005498,-0.009544
15.877939,-0.005555,-0.009643
15.887944,-0.005612,-0.009741
15.897949,-0.005668,-0.009839
15.907954,-0.005724,-0.009937
15.917959,-0.00578,-0.010034
15.927964,-0.005836,-0.010131
15.937969,-0.005892,-0.010227
15.947974,-0.005947,-0.010323
15.957979,-0.006002,-0.010418
15.967984,-0.006057,-0.010514
15.977989,-0.006111,-0.010608
15.987994,-0.006166,-0.010703
15.997999,-0.00622,-0.010797
16.008004,-0.006274,-0.01089
16.018009,-0.006327,-0.010983
16.028014,-0.00638,-0.011076
16.038019,-0.006434,-0.011168
16.048024,-0.006486,-0.011259
16.058029,-0.006539,-0.011351
16.068034,-0.006591,-0.011442
16.078039,-0.006643,-0.011532
16.088044,-0.006695,-0.011622
16.098049,-0.006747,-0.011711
16.108054,-0.006798,-0.0118
16.118059,-0.006849,-0.011889
16.128064,-0.0069,-0.011977
16.138069,-0.00695,-0.012064
16.148074,-0.007,-0.012151
16.158079,-0.00705,-0.012238
16.168084,-0.0071,-0.012324
16.178089,-0.007149,-0.01241
16.188094,-0.007198,-0.012495
16.198099,-0.007247,-0.01258
16.208104,-0.007295,-0.012664
16.218109,-0.007344,-0.012747
16.228114,-0.007392,-0.012831
16.238119,-0.007439,-0.012913
16.248124,-0.007486,-0.012995
16.258129,-0.007534,-0.013077
16.268134,-0.00758,-0.013158
16.278139,-0.007627,-0.013239
16.288144,-0.007673,-0.013319
16.298149,-0.007719,-0.013398
16.308154,-0.007764,-0.013477
16.318159,-0.007809,-0.013556
16.328164,-0.007854,-0.013634
16.338169,-0.007899,-0.013711
16.348174,-0.007943,-0.013788
16.358179,-0.007987,-0.013864
16.368184,-0.008031,-0.01394
16.378189,-0.008074,-0.014015
16.388194,-0.008117,-0.01409
16.398199,-0.00816,-0.014164
16.408204,-0.008202,-0.014238
16.418209,-0.008244,-0.014311
16.428214,-0.008286,-0.014383
16.438219,-0.008327,-0.014455
16.448224,-0.008368,-0.014526
16.458229,-0.008409,-0.014597
16.468234,-0.00845,-0.014667
16.478239,-0.00849,-0.014737
16.488244,-0.008529,-0.014806
16.498249,-0.008569,-0.014874
16.508254,-0.008608,-0.014942
16.518259,-0.008646,-0.015009
16.528264,-0.008685,-0.015076
16.538269,-0.008723,-0.015142
16.548274,-0.008761,-0.015207
16.558279,-0.008798,-0.015272
16.568284,-0.008835,-0.015336
16.578289,-0.008872,-0.0154
16.588294,-0.008908,-0.015463
16.598299,-0.008944,-0.015525
16.608304,-0.008979,-0.015587
16.618309,-0.009015,-0.015648
16.628314,-0.009049,-0.015709
16.638319,-0.009084,-0.015768
16.648324,-0.009118,-0.015828
16.658329,-0.009152,-0.015886
16.668334,-0.009185,-0.015944
16.678339,-0.009218,-0.016002
16.688344,-0.009251,-0.016059
16.698349,-0.009284,-0.016115
16.708354,-0.009316,-0.01617
16.718359,-0.009347,-0.016225
16.728364,-0.009378,-0.016279
16.738369,-0.009409,-0.016333
16.748374,-0.00944,-0.016386
16.758379,-0.00947,-0.016438
16.768384,-0.0095,-0.01649
16.778389,-0.009529,-0.016541
16.788394,-0.009558,-0.016591
16.798399,-0.009587,-0.016641
16.808404,-0.009615,-0.01669
16.818409,-0.009643,-0.016738
16.828414,-0.00967,-0.016786
16.838419,-0.009697,-0.016833
16.848424,-0.009724,-0.016879
16.858429,-0.00975,-0.016925
16.868434,-0.009776,-0.01697
16.878439,-0.009802,-0.017015
16.888444,-0.009827,-0.017058
16.898449,-0.009852,-0.017101
16.908454,-0.009876,-0.017144
16.918459,-0.0099,-0.017185
16.928464,-0.009924,-0.017226
16.938469,-0.009947,-0.017267
16.948474,-0.00997,-0.017306
16.958479,-0.009992,-0.017345
16.968484,-0.010014,-0.017383
16.978489,-0.010036,-0.017421
16.988494,-0.010057,-0.017458
16.998499,-0.010078,-0.017494
17.008504,-0.010099,-0.01753
17.018509,-0.010119,-0.017564
17.028514,-0.010138,-0.017598
17.038519,-0.010158,-0.017632
17.048524,-0.010176,-0.017665
17.058529,-0.010195,-0.017697
17.068534,-0.010213,-0.017728
17.078539,-0.010231,-0.017759
17.088544,-0.010248,-0.017789
17.098549,-0.010265,-0.017818
17.108554,-0.010281,-0.017846
17.118559,-0.010297,-0.017874
17.128564,-0.010313,-0.017901
17.138569,-0.010328,-0.017928
17.148574,-0.010343,-0.017953
17.158579,-0.010357,-0.017978
17.168584,-0.010371,-0.018003
17.178589,-0.010385,-0.018026
17.188594,-0.010398,-0.018049
17.198599,-0.01041,-0.018071
17.208604,-0.010423,-0.018092
17.218609,-0.010435,-0.018113
17.228614,-0.010446,-0.018133
17.238619,-0.010457,-0.018152
17.248624,-0.010468,-0.018171
17.258629,-0.010478,-0.018189
17.268634,-0.010488,-0.018206
17.278639,-0.010498,-0.018222
17.288644,-0.010507,-0.018238
17.298649,-0.010515,-0.018253
17.308654,-0.010523,-0.018267
17.318659,-0.010531,-0.018281
17.328664,-0.010539,-0.018293
17.338669,-0.010546,-0.018306
17.348674,-0.010552,-0.018317
17.358679,-0.010558,-0.018328
17.368684,-0.010564,-0.018337
17.378689,-0.010569,-0.018347
17.388694,-0.010574,-0.018355
17.398699,-0.010579,-0.018363
17.408704,-0.010583,-0.01837
17.418709,-0.010586,-0.018376
17.428714,-0.010589,-0.018382
17.438719,-0.010592,-0.018386
17.448724,-0.010594,-0.01839
17.458729,-0.010596,-0.018394
17.468734,-0.010598,-0.018396
17.478739,-0.010599,-0.018398
17.488744,-0.0106,-0.0184
17.498749,-0.0106,-0.0184
17.508754,-0.0106,-0.0184
17.518759,-0.010599,-0.018399
17.528764,-0.010598,-0.018397
17.538769,-0.010597,-0.018395
17.548774,-0.010595,-0.018391
17.558779,-0.010593,-0.018387
17.568784,-0.01059,-0.018383
17.578789,-0.010587,-0.018377
17.588794,-0.010584,-0.018371
17.598799,-0.01058,-0.018365
17.608804,-0.010575,-0.018357
17.618809,-0.01057,-0.018349
17.628814,-0.010565,-0.01834
17.638819,-0.01056,-0.01833
17.648824,-0.010554,-0.01832
17.658829,-0.010547,-0.018308
17.668834,-0.01054,-0.018297
17.678839,-0.010533,-0.018284
17.688844,-0.010525,-0.018271
17.698849,-0.010517,-0.018257
17.708854,-0.010509,-0.018242
17.718859,-0.0105,-0.018226
17.728864,-0.010491,-0.01821
17.738869,-0.010481,-0.018193
17.748874,-0.010471,-0.018175
17.758879,-0.01046,-0.018157
17.768884,-0.010449,-0.018138
17.778889,-0.010438,-0.018118
17.788894,-0.010426,-0.018098
17.798899,-0.010414,-0.018076
17.808904,-0.010401,-0.018055
17.818909,-0.010388,-0.018032
17.828914,-0.010374,-0.018008
17.838919,-0.010361,-0.017984
17.848924,-0.010346,-0.01796
17.858929,-0.010332,-0.017934
17.868934,-0.010316,-0.017908
17.878939,-0.010301,-0.017881
17.888944,-0.010285,-0.017853
17.898949,-0.010269,-0.017825
17.908954,-0.010252,-0.017796
17.918959,-0.010235,-0.017766
17.928964,-0.010217,-0.017736
17.938969,-0.010199,-0.017705
17.948974,-0.010181,-0.017673
17.958979,-0.010162,-0.01764
17.968984,-0.010143,-0.017607
17.978989,-0.010124,-0.017573
17.988994,-0.010104,-0.017538
17.998999,-0.010083,-0.017503
18.009005,-0.010063,-0.017467
18.01901,-0.010041,-0.01743
18.029015,-0.01002,-0.017393
18.03902,-0.009998,-0.017355
18.049025,-0.009976,-0.017316
18.05903,-0.009953,-0.017277
18.069035,-0.00993,-0.017236
18.07904,-0.009906,-0.017196
18.089045,-0.009882,-0.017154
18.09905,-0.009858,-0.017112
18.109055,-0.009833,-0.017069
18.11906,-0.009808,-0.017026
18.129065,-0.009783,-0.016981
18.13907,-0.009757,-0.016936
18.149075,-0.009731,-0.016891
18.15908,-0.009704,-0.016845
18.169085,-0.009677,-0.016798
18.17909,-0.00965,-0.01675
18.189095,-0.009622,-0.016702
18.1991,-0.009594,-0.016653
18.209105,-0.009565,-0.016604
18.21911,-0.009536,-0.016554
18.229115,-0.009507,-0.016503
18.23912,-0.009477,-0.016451
18.249125,-0.009447,-0.016399
18.25913,-0.009417,-0.016346
18.269135,-0.009386,-0.016293
18.27914,-0.009355,-0.016239
18.289145,-0.009323,-0.016184
18.29915,-0.009292,-0.016129
18.309155,-0.009259,-0.016073
18.31916,-0.009227,-0.016016
18.329165,-0.009194,-0.015959
18.33917,-0.00916,-0.015901
18.349175,-0.009127,-0.015843
18.35918,-0.009093,-0.015783
18.369185,-0.009058,-0.015724
18.37919,-0.009023,-0.015663
18.389195,-0.008988,-0.015602
18.3992,-0.008953,-0.015541
18.409205,-0.008917,-0.015478
18.41921,-0.008881,-0.015416
18.429215,-0.008844,-0.015352
18.43922,-0.008807,-0.015288
18.449225,-0.00877,-0.015223
18.45923,-0.008732,-0.015158
18.469235,-0.008694,-0.015092
18.47924,-0.008656,-0.015026
18.489245,-0.008617,-0.014959
18.49925,-0.008579,-0.014891
18.509255,-0.008539,-0.014823
18.51926,-0.0085,-0.014754
18.529265,-0.00846,-0.014685
18.53927,-0.008419,-0.014615
18.549275,-0.008379,-0.014544
18.55928,-0.008338,-0.014473
18.569285,-0.008296,-0.014401
18.57929,-0.008255,-0.014329
18.589295,-0.008213,-0.014256
18.5993,-0.00817,-0.014183
18.609305,-0.008128,-0.014109
18.61931,-0.008085,-0.014034
18.629315,-0.008042,-0.013959
18.63932,-0.007998,-0.013883
18.649325,-0.007954,-0.013807
18.65933,-0.00791,-0.01373
18.669335,-0.007865,-0.013653
18.67934,-0.007821,-0.013575
18.689345,-0.007775,-0.013497
18.69935,-0.00773,-0.013418
18.709355,-0.007684,-0.013339
18.71936,-0.007638,-0.013259
18.729365,-0.007592,-0.013178
18.73937,-0.007545,-0.013097
18.749375,-0.007498,-0.013016
18.75938,-0.007451,-0.012934
18.769385,-0.007403,-0.012851
18.77939,-0.007356,-0.012768
18.789395,-0.007308,-0.012685
18.7994,-0.007259,-0.012601
18.809405,-0.00721,-0.012516
18.81941,-0.007161,-0.012431
18.829415,-0.007112,-0.012346
18.83942,-0.007063,-0.01226
18.849425,-0.007013,-0.012173
18.85943,-0.006963,-0.012086
18.869435,-0.006912,-0.011999
18.87944,-0.006862,-0.011911
18.889445,-0.006811,-0.011822
18.89945,-0.00676,-0.011734
18.909455,-0.006708,-0.011644
18.91946,-0.006656,-0.011554
18.929465,-0.006604,-0.011464
18.93947,-0.006552,-0.011373
18.949475,-0.0065,-0.011282
18.95948,-0.006447,-0.011191
18.969485,-0.006394,-0.011099
18.97949,-0.006341,-0.011006
18.989495,-0.006287,-0.010913
18.9995,-0.006233,-0.01082
19.009505,-0.006179,-0.010726
19.01951,-0.006125,-0.010632
19.029515,-0.00607,-0.010537
19.03952,-0.006016,-0.010442
19.049525,-0.005961,-0.010347
19.05953,-0.005905,-0.010251
19.069535,-0.00585,-0.010155
19.07954,-0.005794,-0.010058
19.089545,-0.005738,-0.009961
19.09955,-0.005682,-0.009864
19.109555,-0.005626,-0.009766
19.11956,-0.005569,-0.009668
19.129565,-0.005513,-0.009569
19.13957,-0.005456,-0.00947
19.149575,-0.005398,-0.009371
19.15958,-0.005341,-0.009271
19.169585,-0.005283,-0.009171
19.17959,-0.005225,-0.00907
19.189595,-0.005167,-0.008969
19.1996,-0.005109,-0.008868
19.209605,-0.00505,-0.008767
19.21961,-0.004992,-0.008665
19.229615,-0.004933,-0.008563
19.23962,-0.004874,-0.00846
19.249625,-0.004815,-0.008357
19.25963,-0.004755,-0.008254
19.269635,-0.004695,-0.008151
19.27964,-0.004636,-0.008047
19.289645,-0.004576,-0.007942
19.29965,-0.004515,-0.007838
19.309655,-0.004455,-0.007733
19.31966,-0.004394,-0.007628
19.329665,-0.004334,-0.007523
19.33967,-0.004273,-0.007417
19.349675,-0.004212,-0.007311
19.35968,-0.004151,-0.007205
19.369685,-0.004089,-0.007098
19.37969,-0.004028,-0.006991
19.389695,-0.003966,-0.006884
19.3997,-0.003904,-0.006777
19.409705,-0.003842,-0.006669
19.41971,-0.00378,-0.006561
19.429715,-0.003717,-0.006453
19.43972,-0.003655,-0.006344
19.449725,-0.003592,-0.006236
19.45973,-0.00353,-0.006127
19.469735,-0.003467,-0.006018
19.47974,-0.003404,-0.005908
19.489745,-0.00334,-0.005799
19.49975,-0.003277,-0.005689
19.509755,-0.003214,-0.005579
19.51976,-0.00315,-0.005468
19.529765,-0.003086,-0.005358
19.53977,-0.003023,-0.005247
19.549775,-0.002959,-0.005136
19.55978,-0.002895,-0.005025
19.569785,-0.002831,-0.004913
19.57979,-0.002766,-0.004802
19.589795,-0.002702,-0.00469
19.5998,-0.002637,-0.004578
19.609805,-0.002573,-0.004466
19.61981,-0.002508,-0.004354
19.629815,-0.002443,-0.004241
19.63982,-0.002378,-0.004129
19.649825,-0.002313,-0.004016
19.65983,-0.002248,-0.003903
19.669835,-0.002183,-0.00379
19.67984,-0.002118,-0.003676
19.689845,-0.002053,-0.003563
19.69985,-0.001987,-0.00345
19.709855,-0.001922,-0.003336
19.71986,-0.001856,-0.003222
19.729865,-0.001791,-0.003108
19.73987,-0.001725,-0.002994
19.749875,-0.001659,-0.00288
19.75988,-0.001593,-0.002766
19.769885,-0.001527,-0.002651
19.77989,-0.001461,-0.002537
19.789895,-0.001395,-0.002422
19.7999,-0.001329,-0.002307
19.809905,-0.001263,-0.002192
19.81991,-0.001197,-0.002078
19.829915,-0.001131,-0.001963
19.83992,-0.001064,-0.001848
19.849925,-0.000998,-0.001732
19.85993,-0.000932,-0.001617
19.869935,-0.000865,-0.001502
19.87994,-0.000799,-0.001387
19.889945,-0.000732,-0.001271
19.89995,-0.000666,-0.001156
19.909955,-0.000599,-0.00104
19.91996,-0.000533,-0.000925
19.929965,-0.000466,-0.000809
19.93997,-0.0004,-0.000694
19.949975,-0.000333,-0.000578
19.95998,-0.000267,-0.000463
19.969985,-0.0002,-0.000347
19.97999,-0.000133,-0.000231
19.989995,-6.7e-05,-0.000116
20.0,-0.0,-0.0
